ENVI
description = {
  MODIS Resampling Filter Functions}
samples = 4050
lines   = 36
bands   = 1
header offset = 0
file type = ENVI Spectral Library
data type = 5
interleave = bsq
byte order = 0
wavelength units = Micrometers
reflectance scale factor = 1.000000
z plot titles = {Wavelength, Value}
z plot range = {0.00, 1.00}
band names = {MODIS Band Filter Functions}
spectra names = {
 MODIS Band 1, MODIS Band 2, MODIS Band 3, MODIS Band 4, 
 MODIS Band 5, MODIS Band 6, MODIS Band 7, MODIS Band 8, 
 MODIS Band 9, MODIS Band 10, MODIS Band 11, MODIS Band 12, 
 MODIS Band 13, MODIS Band 14, MODIS Band 15, MODIS Band 16, 
 MODIS Band 17, MODIS Band 18, MODIS Band 19, MODIS Band 20, 
 MODIS Band 21, MODIS Band 22, MODIS Band 23, MODIS Band 24, 
 MODIS Band 25, MODIS Band 26, MODIS Band 27, MODIS Band 28, 
 MODIS Band 29, MODIS Band 30, MODIS Band 31, MODIS Band 32, 
 MODIS Band 33, MODIS Band 34, MODIS Band 35, MODIS Band 36}
wavelength = {
  0.339800,  0.343300,  0.346800,  0.350300,  0.353800,  0.357300,  0.360800,
  0.364300,  0.367800,  0.371300,  0.374800,  0.378300,  0.381800,  0.385300,
  0.388800,  0.392300,  0.395800,  0.399300,  0.402800,  0.406300,  0.409800,
  0.413300,  0.416800,  0.420300,  0.423800,  0.427300,  0.430800,  0.434300,
  0.437800,  0.441300,  0.444800,  0.448300,  0.451800,  0.455300,  0.458800,
  0.462300,  0.465800,  0.469300,  0.472800,  0.476300,  0.479800,  0.483300,
  0.486800,  0.490300,  0.493800,  0.497300,  0.500800,  0.504300,  0.507800,
  0.511300,  0.514800,  0.518300,  0.521800,  0.525300,  0.528800,  0.532300,
  0.535800,  0.539300,  0.542800,  0.546300,  0.549800,  0.553300,  0.556800,
  0.560300,  0.563800,  0.567300,  0.570800,  0.574300,  0.577800,  0.581300,
  0.584800,  0.588300,  0.591800,  0.595300,  0.598800,  0.602300,  0.605800,
  0.609300,  0.612800,  0.616300,  0.619800,  0.623300,  0.626800,  0.630300,
  0.633800,  0.637300,  0.640800,  0.644300,  0.647800,  0.651300,  0.654800,
  0.658300,  0.661800,  0.665300,  0.668800,  0.672300,  0.675800,  0.679300,
  0.682800,  0.686300,  0.689800,  0.693300,  0.696800,  0.700300,  0.703800,
  0.707300,  0.710800,  0.714300,  0.717800,  0.721300,  0.724800,  0.728300,
  0.731800,  0.735300,  0.738800,  0.742300,  0.745800,  0.749300,  0.752800,
  0.756300,  0.759800,  0.763300,  0.766800,  0.770300,  0.773800,  0.777300,
  0.780800,  0.784300,  0.787800,  0.791300,  0.794800,  0.798300,  0.801800,
  0.805300,  0.808800,  0.812300,  0.815800,  0.819300,  0.822800,  0.826300,
  0.829800,  0.833300,  0.836800,  0.840300,  0.843800,  0.847300,  0.850800,
  0.854300,  0.857800,  0.861300,  0.864800,  0.868300,  0.871800,  0.875300,
  0.878800,  0.882300,  0.885800,  0.889300,  0.892800,  0.896300,  0.899800,
  0.903300,  0.906800,  0.910300,  0.913800,  0.917300,  0.920800,  0.924300,
  0.927800,  0.931300,  0.934800,  0.938300,  0.941800,  0.945300,  0.948800,
  0.952300,  0.955800,  0.959300,  0.962800,  0.966300,  0.969800,  0.973300,
  0.976800,  0.980300,  0.983800,  0.987300,  0.990800,  0.994300,  0.997800,
  1.001300,  1.004800,  1.008300,  1.011800,  1.015300,  1.018800,  1.022300,
  1.025800,  1.029300,  1.032800,  1.036300,  1.039800,  1.043300,  1.046800,
  1.050300,  1.053800,  1.057300,  1.060800,  1.064300,  1.067800,  1.071300,
  1.074800,  1.078300,  1.081800,  1.085300,  1.088800,  1.092300,  1.095800,
  1.099300,  1.102800,  1.106300,  1.109800,  1.113300,  1.116800,  1.120300,
  1.123800,  1.127300,  1.130800,  1.134300,  1.137800,  1.141300,  1.144800,
  1.148300,  1.151800,  1.155300,  1.158800,  1.162300,  1.165800,  1.169300,
  1.172800,  1.176300,  1.179800,  1.183300,  1.186800,  1.190300,  1.193800,
  1.197300,  1.200800,  1.204300,  1.207800,  1.211300,  1.214800,  1.218300,
  1.221800,  1.225300,  1.228800,  1.232300,  1.235800,  1.239300,  1.242800,
  1.246300,  1.249800,  1.253300,  1.256800,  1.260300,  1.263800,  1.267300,
  1.270800,  1.274300,  1.277800,  1.281300,  1.284800,  1.288300,  1.291800,
  1.295300,  1.298800,  1.302300,  1.305800,  1.309300,  1.312800,  1.316300,
  1.319800,  1.323300,  1.326800,  1.330300,  1.333800,  1.337300,  1.340800,
  1.344300,  1.347800,  1.351300,  1.354800,  1.358300,  1.361800,  1.365300,
  1.368800,  1.372300,  1.375800,  1.379300,  1.382800,  1.386300,  1.389800,
  1.393300,  1.396800,  1.400300,  1.403800,  1.407300,  1.410800,  1.414300,
  1.417800,  1.421300,  1.424800,  1.428300,  1.431800,  1.435300,  1.438800,
  1.442300,  1.445800,  1.449300,  1.452800,  1.456300,  1.459800,  1.463300,
  1.466800,  1.470300,  1.473800,  1.477300,  1.480800,  1.484300,  1.487800,
  1.491300,  1.494800,  1.498300,  1.501800,  1.505300,  1.508800,  1.512300,
  1.515800,  1.519300,  1.522800,  1.526300,  1.529800,  1.533300,  1.536800,
  1.540300,  1.543800,  1.547300,  1.550800,  1.554300,  1.557800,  1.561300,
  1.564800,  1.568300,  1.571800,  1.575300,  1.578800,  1.582300,  1.585800,
  1.589300,  1.592800,  1.596300,  1.599800,  1.603300,  1.606800,  1.610300,
  1.613800,  1.617300,  1.620800,  1.624300,  1.627800,  1.631300,  1.634800,
  1.638300,  1.641800,  1.645300,  1.648800,  1.652300,  1.655800,  1.659300,
  1.662800,  1.666300,  1.669800,  1.673300,  1.676800,  1.680300,  1.683800,
  1.687300,  1.690800,  1.694300,  1.697800,  1.701300,  1.704800,  1.708300,
  1.711800,  1.715300,  1.718800,  1.722300,  1.725800,  1.729300,  1.732800,
  1.736300,  1.739800,  1.743300,  1.746800,  1.750300,  1.753800,  1.757300,
  1.760800,  1.764300,  1.767800,  1.771300,  1.774800,  1.778300,  1.781800,
  1.785300,  1.788800,  1.792300,  1.795800,  1.799300,  1.802800,  1.806300,
  1.809800,  1.813300,  1.816800,  1.820300,  1.823800,  1.827300,  1.830800,
  1.834300,  1.837800,  1.841300,  1.844800,  1.848300,  1.851800,  1.855300,
  1.858800,  1.862300,  1.865800,  1.869300,  1.872800,  1.876300,  1.879800,
  1.883300,  1.886800,  1.890300,  1.893800,  1.897300,  1.900800,  1.904300,
  1.907800,  1.911300,  1.914800,  1.918300,  1.921800,  1.925300,  1.928800,
  1.932300,  1.935800,  1.939300,  1.942800,  1.946300,  1.949800,  1.953300,
  1.956800,  1.960300,  1.963800,  1.967300,  1.970800,  1.974300,  1.977800,
  1.981300,  1.984800,  1.988300,  1.991800,  1.995300,  1.998800,  2.002300,
  2.005800,  2.009300,  2.012800,  2.016300,  2.019800,  2.023300,  2.026800,
  2.030300,  2.033800,  2.037300,  2.040800,  2.044300,  2.047800,  2.051300,
  2.054800,  2.058300,  2.061800,  2.065300,  2.068800,  2.072300,  2.075800,
  2.079300,  2.082800,  2.086300,  2.089800,  2.093300,  2.096800,  2.100300,
  2.103800,  2.107300,  2.110800,  2.114300,  2.117800,  2.121300,  2.124800,
  2.128300,  2.131800,  2.135300,  2.138800,  2.142300,  2.145800,  2.149300,
  2.152800,  2.156300,  2.159800,  2.163300,  2.166800,  2.170300,  2.173800,
  2.177300,  2.180800,  2.184300,  2.187800,  2.191300,  2.194800,  2.198300,
  2.201800,  2.205300,  2.208800,  2.212300,  2.215800,  2.219300,  2.222800,
  2.226300,  2.229800,  2.233300,  2.236800,  2.240300,  2.243800,  2.247300,
  2.250800,  2.254300,  2.257800,  2.261300,  2.264800,  2.268300,  2.271800,
  2.275300,  2.278800,  2.282300,  2.285800,  2.289300,  2.292800,  2.296300,
  2.299800,  2.303300,  2.306800,  2.310300,  2.313800,  2.317300,  2.320800,
  2.324300,  2.327800,  2.331300,  2.334800,  2.338300,  2.341800,  2.345300,
  2.348800,  2.352300,  2.355800,  2.359300,  2.362800,  2.366300,  2.369800,
  2.373300,  2.376800,  2.380300,  2.383800,  2.387300,  2.390800,  2.394300,
  2.397800,  2.401300,  2.404800,  2.408300,  2.411800,  2.415300,  2.418800,
  2.422300,  2.425800,  2.429300,  2.432800,  2.436300,  2.439800,  2.443300,
  2.446800,  2.450300,  2.453800,  2.457300,  2.460800,  2.464300,  2.467800,
  2.471300,  2.474800,  2.478300,  2.481800,  2.485300,  2.488800,  2.492300,
  2.495800,  2.499300,  2.502800,  2.506300,  2.509800,  2.513300,  2.516800,
  2.520300,  2.523800,  2.527300,  2.530800,  2.534300,  2.537800,  2.541300,
  2.544800,  2.548300,  2.551800,  2.555300,  2.558800,  2.562300,  2.565800,
  2.569300,  2.572800,  2.576300,  2.579800,  2.583300,  2.586800,  2.590300,
  2.593800,  2.597300,  2.600800,  2.604300,  2.607800,  2.611300,  2.614800,
  2.618300,  2.621800,  2.625300,  2.628800,  2.632300,  2.635800,  2.639300,
  2.642800,  2.646300,  2.649800,  2.653300,  2.656800,  2.660300,  2.663800,
  2.667300,  2.670800,  2.674300,  2.677800,  2.681300,  2.684800,  2.688300,
  2.691800,  2.695300,  2.698800,  2.702300,  2.705800,  2.709300,  2.712800,
  2.716300,  2.719800,  2.723300,  2.726800,  2.730300,  2.733800,  2.737300,
  2.740800,  2.744300,  2.747800,  2.751300,  2.754800,  2.758300,  2.761800,
  2.765300,  2.768800,  2.772300,  2.775800,  2.779300,  2.782800,  2.786300,
  2.789800,  2.793300,  2.796800,  2.800300,  2.803800,  2.807300,  2.810800,
  2.814300,  2.817800,  2.821300,  2.824800,  2.828300,  2.831800,  2.835300,
  2.838800,  2.842300,  2.845800,  2.849300,  2.852800,  2.856300,  2.859800,
  2.863300,  2.866800,  2.870300,  2.873800,  2.877300,  2.880800,  2.884300,
  2.887800,  2.891300,  2.894800,  2.898300,  2.901800,  2.905300,  2.908800,
  2.912300,  2.915800,  2.919300,  2.922800,  2.926300,  2.929800,  2.933300,
  2.936800,  2.940300,  2.943800,  2.947300,  2.950800,  2.954300,  2.957800,
  2.961300,  2.964800,  2.968300,  2.971800,  2.975300,  2.978800,  2.982300,
  2.985800,  2.989300,  2.992800,  2.996300,  2.999800,  3.003300,  3.006800,
  3.010300,  3.013800,  3.017300,  3.020800,  3.024300,  3.027800,  3.031300,
  3.034800,  3.038300,  3.041800,  3.045300,  3.048800,  3.052300,  3.055800,
  3.059300,  3.062800,  3.066300,  3.069800,  3.073300,  3.076800,  3.080300,
  3.083800,  3.087300,  3.090800,  3.094300,  3.097800,  3.101300,  3.104800,
  3.108300,  3.111800,  3.115300,  3.118800,  3.122300,  3.125800,  3.129300,
  3.132800,  3.136300,  3.139800,  3.143300,  3.146800,  3.150300,  3.153800,
  3.157300,  3.160800,  3.164300,  3.167800,  3.171300,  3.174800,  3.178300,
  3.181800,  3.185300,  3.188800,  3.192300,  3.195800,  3.199300,  3.202800,
  3.206300,  3.209800,  3.213300,  3.216800,  3.220300,  3.223800,  3.227300,
  3.230800,  3.234300,  3.237800,  3.241300,  3.244800,  3.248300,  3.251800,
  3.255300,  3.258800,  3.262300,  3.265800,  3.269300,  3.272800,  3.276300,
  3.279800,  3.283300,  3.286800,  3.290300,  3.293800,  3.297300,  3.300800,
  3.304300,  3.307800,  3.311300,  3.314800,  3.318300,  3.321800,  3.325300,
  3.328800,  3.332300,  3.335800,  3.339300,  3.342800,  3.346300,  3.349800,
  3.353300,  3.356800,  3.360300,  3.363800,  3.367300,  3.370800,  3.374300,
  3.377800,  3.381300,  3.384800,  3.388300,  3.391800,  3.395300,  3.398800,
  3.402300,  3.405800,  3.409300,  3.412800,  3.416300,  3.419800,  3.423300,
  3.426800,  3.430300,  3.433800,  3.437300,  3.440800,  3.444300,  3.447800,
  3.451300,  3.454800,  3.458300,  3.461800,  3.465300,  3.468800,  3.472300,
  3.475800,  3.479300,  3.482800,  3.486300,  3.489800,  3.493300,  3.496800,
  3.500300,  3.503800,  3.507300,  3.510800,  3.514300,  3.517800,  3.521300,
  3.524800,  3.528300,  3.531800,  3.535300,  3.538800,  3.542300,  3.545800,
  3.549300,  3.552800,  3.556300,  3.559800,  3.563300,  3.566800,  3.570300,
  3.573800,  3.577300,  3.580800,  3.584300,  3.587800,  3.591300,  3.594800,
  3.598300,  3.601800,  3.605300,  3.608800,  3.612300,  3.615800,  3.619300,
  3.622800,  3.626300,  3.629800,  3.633300,  3.636800,  3.640300,  3.643800,
  3.647300,  3.650800,  3.654300,  3.657800,  3.661300,  3.664800,  3.668300,
  3.671800,  3.675300,  3.678800,  3.682300,  3.685800,  3.689300,  3.692800,
  3.696300,  3.699800,  3.703300,  3.706800,  3.710300,  3.713800,  3.717300,
  3.720800,  3.724300,  3.727800,  3.731300,  3.734800,  3.738300,  3.741800,
  3.745300,  3.748800,  3.752300,  3.755800,  3.759300,  3.762800,  3.766300,
  3.769800,  3.773300,  3.776800,  3.780300,  3.783800,  3.787300,  3.790800,
  3.794300,  3.797800,  3.801300,  3.804800,  3.808300,  3.811800,  3.815300,
  3.818800,  3.822300,  3.825800,  3.829300,  3.832800,  3.836300,  3.839800,
  3.843300,  3.846800,  3.850300,  3.853800,  3.857300,  3.860800,  3.864300,
  3.867800,  3.871300,  3.874800,  3.878300,  3.881800,  3.885300,  3.888800,
  3.892300,  3.895800,  3.899300,  3.902800,  3.906300,  3.909800,  3.913300,
  3.916800,  3.920300,  3.923800,  3.927300,  3.930800,  3.934300,  3.937800,
  3.941300,  3.944800,  3.948300,  3.951800,  3.955300,  3.958800,  3.962300,
  3.965800,  3.969300,  3.972800,  3.976300,  3.979800,  3.983300,  3.986800,
  3.990300,  3.993800,  3.997300,  4.000800,  4.004300,  4.007800,  4.011300,
  4.014800,  4.018300,  4.021800,  4.025300,  4.028800,  4.032300,  4.035800,
  4.039300,  4.042800,  4.046300,  4.049800,  4.053300,  4.056800,  4.060300,
  4.063800,  4.067300,  4.070800,  4.074300,  4.077800,  4.081300,  4.084800,
  4.088300,  4.091800,  4.095300,  4.098800,  4.102300,  4.105800,  4.109300,
  4.112800,  4.116300,  4.119800,  4.123300,  4.126800,  4.130300,  4.133800,
  4.137300,  4.140800,  4.144300,  4.147800,  4.151300,  4.154800,  4.158300,
  4.161800,  4.165300,  4.168800,  4.172300,  4.175800,  4.179300,  4.182800,
  4.186300,  4.189800,  4.193300,  4.196800,  4.200300,  4.203800,  4.207300,
  4.210800,  4.214300,  4.217800,  4.221300,  4.224800,  4.228300,  4.231800,
  4.235300,  4.238800,  4.242300,  4.245800,  4.249300,  4.252800,  4.256300,
  4.259800,  4.263300,  4.266800,  4.270300,  4.273800,  4.277300,  4.280800,
  4.284300,  4.287800,  4.291300,  4.294800,  4.298300,  4.301800,  4.305300,
  4.308800,  4.312300,  4.315800,  4.319300,  4.322800,  4.326300,  4.329800,
  4.333300,  4.336800,  4.340300,  4.343800,  4.347300,  4.350800,  4.354300,
  4.357800,  4.361300,  4.364800,  4.368300,  4.371800,  4.375300,  4.378800,
  4.382300,  4.385800,  4.389300,  4.392800,  4.396300,  4.399800,  4.403300,
  4.406800,  4.410300,  4.413800,  4.417300,  4.420800,  4.424300,  4.427800,
  4.431300,  4.434800,  4.438300,  4.441800,  4.445300,  4.448800,  4.452300,
  4.455800,  4.459300,  4.462800,  4.466300,  4.469800,  4.473300,  4.476800,
  4.480300,  4.483800,  4.487300,  4.490800,  4.494300,  4.497800,  4.501300,
  4.504800,  4.508300,  4.511800,  4.515300,  4.518800,  4.522300,  4.525800,
  4.529300,  4.532800,  4.536300,  4.539800,  4.543300,  4.546800,  4.550300,
  4.553800,  4.557300,  4.560800,  4.564300,  4.567800,  4.571300,  4.574800,
  4.578300,  4.581800,  4.585300,  4.588800,  4.592300,  4.595800,  4.599300,
  4.602800,  4.606300,  4.609800,  4.613300,  4.616800,  4.620300,  4.623800,
  4.627300,  4.630800,  4.634300,  4.637800,  4.641300,  4.644800,  4.648300,
  4.651800,  4.655300,  4.658800,  4.662300,  4.665800,  4.669300,  4.672800,
  4.676300,  4.679800,  4.683300,  4.686800,  4.690300,  4.693800,  4.697300,
  4.700800,  4.704300,  4.707800,  4.711300,  4.714800,  4.718300,  4.721800,
  4.725300,  4.728800,  4.732300,  4.735800,  4.739300,  4.742800,  4.746300,
  4.749800,  4.753300,  4.756800,  4.760300,  4.763800,  4.767300,  4.770800,
  4.774300,  4.777800,  4.781300,  4.784800,  4.788300,  4.791800,  4.795300,
  4.798800,  4.802300,  4.805800,  4.809300,  4.812800,  4.816300,  4.819800,
  4.823300,  4.826800,  4.830300,  4.833800,  4.837300,  4.840800,  4.844300,
  4.847800,  4.851300,  4.854800,  4.858300,  4.861800,  4.865300,  4.868800,
  4.872300,  4.875800,  4.879300,  4.882800,  4.886300,  4.889800,  4.893300,
  4.896800,  4.900300,  4.903800,  4.907300,  4.910800,  4.914300,  4.917800,
  4.921300,  4.924800,  4.928300,  4.931800,  4.935300,  4.938800,  4.942300,
  4.945800,  4.949300,  4.952800,  4.956300,  4.959800,  4.963300,  4.966800,
  4.970300,  4.973800,  4.977300,  4.980800,  4.984300,  4.987800,  4.991300,
  4.994800,  4.998300,  5.001800,  5.005300,  5.008800,  5.012300,  5.015800,
  5.019300,  5.022800,  5.026300,  5.029800,  5.033300,  5.036800,  5.040300,
  5.043800,  5.047300,  5.050800,  5.054300,  5.057800,  5.061300,  5.064800,
  5.068300,  5.071800,  5.075300,  5.078800,  5.082300,  5.085800,  5.089300,
  5.092800,  5.096300,  5.099800,  5.103300,  5.106800,  5.110300,  5.113800,
  5.117300,  5.120800,  5.124300,  5.127800,  5.131300,  5.134800,  5.138300,
  5.141800,  5.145300,  5.148800,  5.152300,  5.155800,  5.159300,  5.162800,
  5.166300,  5.169800,  5.173300,  5.176800,  5.180300,  5.183800,  5.187300,
  5.190800,  5.194300,  5.197800,  5.201300,  5.204800,  5.208300,  5.211800,
  5.215300,  5.218800,  5.222300,  5.225800,  5.229300,  5.232800,  5.236300,
  5.239800,  5.243300,  5.246800,  5.250300,  5.253800,  5.257300,  5.260800,
  5.264300,  5.267800,  5.271300,  5.274800,  5.278300,  5.281800,  5.285300,
  5.288800,  5.292300,  5.295800,  5.299300,  5.302800,  5.306300,  5.309800,
  5.313300,  5.316800,  5.320300,  5.323800,  5.327300,  5.330800,  5.334300,
  5.337800,  5.341300,  5.344800,  5.348300,  5.351800,  5.355300,  5.358800,
  5.362300,  5.365800,  5.369300,  5.372800,  5.376300,  5.379800,  5.383300,
  5.386800,  5.390300,  5.393800,  5.397300,  5.400800,  5.404300,  5.407800,
  5.411300,  5.414800,  5.418300,  5.421800,  5.425300,  5.428800,  5.432300,
  5.435800,  5.439300,  5.442800,  5.446300,  5.449800,  5.453300,  5.456800,
  5.460300,  5.463800,  5.467300,  5.470800,  5.474300,  5.477800,  5.481300,
  5.484800,  5.488300,  5.491800,  5.495300,  5.498800,  5.502300,  5.505800,
  5.509300,  5.512800,  5.516300,  5.519800,  5.523300,  5.526800,  5.530300,
  5.533800,  5.537300,  5.540800,  5.544300,  5.547800,  5.551300,  5.554800,
  5.558300,  5.561800,  5.565300,  5.568800,  5.572300,  5.575800,  5.579300,
  5.582800,  5.586300,  5.589800,  5.593300,  5.596800,  5.600300,  5.603800,
  5.607300,  5.610800,  5.614300,  5.617800,  5.621300,  5.624800,  5.628300,
  5.631800,  5.635300,  5.638800,  5.642300,  5.645800,  5.649300,  5.652800,
  5.656300,  5.659800,  5.663300,  5.666800,  5.670300,  5.673800,  5.677300,
  5.680800,  5.684300,  5.687800,  5.691300,  5.694800,  5.698300,  5.701800,
  5.705300,  5.708800,  5.712300,  5.715800,  5.719300,  5.722800,  5.726300,
  5.729800,  5.733300,  5.736800,  5.740300,  5.743800,  5.747300,  5.750800,
  5.754300,  5.757800,  5.761300,  5.764800,  5.768300,  5.771800,  5.775300,
  5.778800,  5.782300,  5.785800,  5.789300,  5.792800,  5.796300,  5.799800,
  5.803300,  5.806800,  5.810300,  5.813800,  5.817300,  5.820800,  5.824300,
  5.827800,  5.831300,  5.834800,  5.838300,  5.841800,  5.845300,  5.848800,
  5.852300,  5.855800,  5.859300,  5.862800,  5.866300,  5.869800,  5.873300,
  5.876800,  5.880300,  5.883800,  5.887300,  5.890800,  5.894300,  5.897800,
  5.901300,  5.904800,  5.908300,  5.911800,  5.915300,  5.918800,  5.922300,
  5.925800,  5.929300,  5.932800,  5.936300,  5.939800,  5.943300,  5.946800,
  5.950300,  5.953800,  5.957300,  5.960800,  5.964300,  5.967800,  5.971300,
  5.974800,  5.978300,  5.981800,  5.985300,  5.988800,  5.992300,  5.995800,
  5.999300,  6.002800,  6.006300,  6.009800,  6.013300,  6.016800,  6.020300,
  6.023800,  6.027300,  6.030800,  6.034300,  6.037800,  6.041300,  6.044800,
  6.048300,  6.051800,  6.055300,  6.058800,  6.062300,  6.065800,  6.069300,
  6.072800,  6.076300,  6.079800,  6.083300,  6.086800,  6.090300,  6.093800,
  6.097300,  6.100800,  6.104300,  6.107800,  6.111300,  6.114800,  6.118300,
  6.121800,  6.125300,  6.128800,  6.132300,  6.135800,  6.139300,  6.142800,
  6.146300,  6.149800,  6.153300,  6.156800,  6.160300,  6.163800,  6.167300,
  6.170800,  6.174300,  6.177800,  6.181300,  6.184800,  6.188300,  6.191800,
  6.195300,  6.198800,  6.202300,  6.205800,  6.209300,  6.212800,  6.216300,
  6.219800,  6.223300,  6.226800,  6.230300,  6.233800,  6.237300,  6.240800,
  6.244300,  6.247800,  6.251300,  6.254800,  6.258300,  6.261800,  6.265300,
  6.268800,  6.272300,  6.275800,  6.279300,  6.282800,  6.286300,  6.289800,
  6.293300,  6.296800,  6.300300,  6.303800,  6.307300,  6.310800,  6.314300,
  6.317800,  6.321300,  6.324800,  6.328300,  6.331800,  6.335300,  6.338800,
  6.342300,  6.345800,  6.349300,  6.352800,  6.356300,  6.359800,  6.363300,
  6.366800,  6.370300,  6.373800,  6.377300,  6.380800,  6.384300,  6.387800,
  6.391300,  6.394800,  6.398300,  6.401800,  6.405300,  6.408800,  6.412300,
  6.415800,  6.419300,  6.422800,  6.426300,  6.429800,  6.433300,  6.436800,
  6.440300,  6.443800,  6.447300,  6.450800,  6.454300,  6.457800,  6.461300,
  6.464800,  6.468300,  6.471800,  6.475300,  6.478800,  6.482300,  6.485800,
  6.489300,  6.492800,  6.496300,  6.499800,  6.503300,  6.506800,  6.510300,
  6.513800,  6.517300,  6.520800,  6.524300,  6.527800,  6.531300,  6.534800,
  6.538300,  6.541800,  6.545300,  6.548800,  6.552300,  6.555800,  6.559300,
  6.562800,  6.566300,  6.569800,  6.573300,  6.576800,  6.580300,  6.583800,
  6.587300,  6.590800,  6.594300,  6.597800,  6.601300,  6.604800,  6.608300,
  6.611800,  6.615300,  6.618800,  6.622300,  6.625800,  6.629300,  6.632800,
  6.636300,  6.639800,  6.643300,  6.646800,  6.650300,  6.653800,  6.657300,
  6.660800,  6.664300,  6.667800,  6.671300,  6.674800,  6.678300,  6.681800,
  6.685300,  6.688800,  6.692300,  6.695800,  6.699300,  6.702800,  6.706300,
  6.709800,  6.713300,  6.716800,  6.720300,  6.723800,  6.727300,  6.730800,
  6.734300,  6.737800,  6.741300,  6.744800,  6.748300,  6.751800,  6.755300,
  6.758800,  6.762300,  6.765800,  6.769300,  6.772800,  6.776300,  6.779800,
  6.783300,  6.786800,  6.790300,  6.793800,  6.797300,  6.800800,  6.804300,
  6.807800,  6.811300,  6.814800,  6.818300,  6.821800,  6.825300,  6.828800,
  6.832300,  6.835800,  6.839300,  6.842800,  6.846300,  6.849800,  6.853300,
  6.856800,  6.860300,  6.863800,  6.867300,  6.870800,  6.874300,  6.877800,
  6.881300,  6.884800,  6.888300,  6.891800,  6.895300,  6.898800,  6.902300,
  6.905800,  6.909300,  6.912800,  6.916300,  6.919800,  6.923300,  6.926800,
  6.930300,  6.933800,  6.937300,  6.940800,  6.944300,  6.947800,  6.951300,
  6.954800,  6.958300,  6.961800,  6.965300,  6.968800,  6.972300,  6.975800,
  6.979300,  6.982800,  6.986300,  6.989800,  6.993300,  6.996800,  7.000300,
  7.003800,  7.007300,  7.010800,  7.014300,  7.017800,  7.021300,  7.024800,
  7.028300,  7.031800,  7.035300,  7.038800,  7.042300,  7.045800,  7.049300,
  7.052800,  7.056300,  7.059800,  7.063300,  7.066800,  7.070300,  7.073800,
  7.077300,  7.080800,  7.084300,  7.087800,  7.091300,  7.094800,  7.098300,
  7.101800,  7.105300,  7.108800,  7.112300,  7.115800,  7.119300,  7.122800,
  7.126300,  7.129800,  7.133300,  7.136800,  7.140300,  7.143800,  7.147300,
  7.150800,  7.154300,  7.157800,  7.161300,  7.164800,  7.168300,  7.171800,
  7.175300,  7.178800,  7.182300,  7.185800,  7.189300,  7.192800,  7.196300,
  7.199800,  7.203300,  7.206800,  7.210300,  7.213800,  7.217300,  7.220800,
  7.224300,  7.227800,  7.231300,  7.234800,  7.238300,  7.241800,  7.245300,
  7.248800,  7.252300,  7.255800,  7.259300,  7.262800,  7.266300,  7.269800,
  7.273300,  7.276800,  7.280300,  7.283800,  7.287300,  7.290800,  7.294300,
  7.297800,  7.301300,  7.304800,  7.308300,  7.311800,  7.315300,  7.318800,
  7.322300,  7.325800,  7.329300,  7.332800,  7.336300,  7.339800,  7.343300,
  7.346800,  7.350300,  7.353800,  7.357300,  7.360800,  7.364300,  7.367800,
  7.371300,  7.374800,  7.378300,  7.381800,  7.385300,  7.388800,  7.392300,
  7.395800,  7.399300,  7.402800,  7.406300,  7.409800,  7.413300,  7.416800,
  7.420300,  7.423800,  7.427300,  7.430800,  7.434300,  7.437800,  7.441300,
  7.444800,  7.448300,  7.451800,  7.455300,  7.458800,  7.462300,  7.465800,
  7.469300,  7.472800,  7.476300,  7.479800,  7.483300,  7.486800,  7.490300,
  7.493800,  7.497300,  7.500800,  7.504300,  7.507800,  7.511300,  7.514800,
  7.518300,  7.521800,  7.525300,  7.528800,  7.532300,  7.535800,  7.539300,
  7.542800,  7.546300,  7.549800,  7.553300,  7.556800,  7.560300,  7.563800,
  7.567300,  7.570800,  7.574300,  7.577800,  7.581300,  7.584800,  7.588300,
  7.591800,  7.595300,  7.598800,  7.602300,  7.605800,  7.609300,  7.612800,
  7.616300,  7.619800,  7.623300,  7.626800,  7.630300,  7.633800,  7.637300,
  7.640800,  7.644300,  7.647800,  7.651300,  7.654800,  7.658300,  7.661800,
  7.665300,  7.668800,  7.672300,  7.675800,  7.679300,  7.682800,  7.686300,
  7.689800,  7.693300,  7.696800,  7.700300,  7.703800,  7.707300,  7.710800,
  7.714300,  7.717800,  7.721300,  7.724800,  7.728300,  7.731800,  7.735300,
  7.738800,  7.742300,  7.745800,  7.749300,  7.752800,  7.756300,  7.759800,
  7.763300,  7.766800,  7.770300,  7.773800,  7.777300,  7.780800,  7.784300,
  7.787800,  7.791300,  7.794800,  7.798300,  7.801800,  7.805300,  7.808800,
  7.812300,  7.815800,  7.819300,  7.822800,  7.826300,  7.829800,  7.833300,
  7.836800,  7.840300,  7.843800,  7.847300,  7.850800,  7.854300,  7.857800,
  7.861300,  7.864800,  7.868300,  7.871800,  7.875300,  7.878800,  7.882300,
  7.885800,  7.889300,  7.892800,  7.896300,  7.899800,  7.903300,  7.906800,
  7.910300,  7.913800,  7.917300,  7.920800,  7.924300,  7.927800,  7.931300,
  7.934800,  7.938300,  7.941800,  7.945300,  7.948800,  7.952300,  7.955800,
  7.959300,  7.962800,  7.966300,  7.969800,  7.973300,  7.976800,  7.980300,
  7.983800,  7.987300,  7.990800,  7.994300,  7.997800,  8.001300,  8.004800,
  8.008300,  8.011800,  8.015300,  8.018800,  8.022300,  8.025800,  8.029300,
  8.032800,  8.036300,  8.039800,  8.043300,  8.046800,  8.050300,  8.053800,
  8.057300,  8.060800,  8.064300,  8.067800,  8.071300,  8.074800,  8.078300,
  8.081800,  8.085300,  8.088800,  8.092300,  8.095800,  8.099300,  8.102800,
  8.106300,  8.109800,  8.113300,  8.116800,  8.120300,  8.123800,  8.127300,
  8.130800,  8.134300,  8.137800,  8.141300,  8.144800,  8.148300,  8.151800,
  8.155300,  8.158800,  8.162300,  8.165800,  8.169300,  8.172800,  8.176300,
  8.179800,  8.183300,  8.186800,  8.190300,  8.193800,  8.197300,  8.200800,
  8.204300,  8.207800,  8.211300,  8.214800,  8.218300,  8.221800,  8.225300,
  8.228800,  8.232300,  8.235800,  8.239300,  8.242800,  8.246300,  8.249800,
  8.253300,  8.256800,  8.260300,  8.263800,  8.267300,  8.270800,  8.274300,
  8.277800,  8.281300,  8.284800,  8.288300,  8.291800,  8.295300,  8.298800,
  8.302300,  8.305800,  8.309300,  8.312800,  8.316300,  8.319800,  8.323300,
  8.326800,  8.330300,  8.333800,  8.337300,  8.340800,  8.344300,  8.347800,
  8.351300,  8.354800,  8.358300,  8.361800,  8.365300,  8.368800,  8.372300,
  8.375800,  8.379300,  8.382800,  8.386300,  8.389800,  8.393300,  8.396800,
  8.400300,  8.403800,  8.407300,  8.410800,  8.414300,  8.417800,  8.421300,
  8.424800,  8.428300,  8.431800,  8.435300,  8.438800,  8.442300,  8.445800,
  8.449300,  8.452800,  8.456300,  8.459800,  8.463300,  8.466800,  8.470300,
  8.473800,  8.477300,  8.480800,  8.484300,  8.487800,  8.491300,  8.494800,
  8.498300,  8.501800,  8.505300,  8.508800,  8.512300,  8.515800,  8.519300,
  8.522800,  8.526300,  8.529800,  8.533300,  8.536800,  8.540300,  8.543800,
  8.547300,  8.550800,  8.554300,  8.557800,  8.561300,  8.564800,  8.568300,
  8.571800,  8.575300,  8.578800,  8.582300,  8.585800,  8.589300,  8.592800,
  8.596300,  8.599800,  8.603300,  8.606800,  8.610300,  8.613800,  8.617300,
  8.620800,  8.624300,  8.627800,  8.631300,  8.634800,  8.638300,  8.641800,
  8.645300,  8.648800,  8.652300,  8.655800,  8.659300,  8.662800,  8.666300,
  8.669800,  8.673300,  8.676800,  8.680300,  8.683800,  8.687300,  8.690800,
  8.694300,  8.697800,  8.701300,  8.704800,  8.708300,  8.711800,  8.715300,
  8.718800,  8.722300,  8.725800,  8.729300,  8.732800,  8.736300,  8.739800,
  8.743300,  8.746800,  8.750300,  8.753800,  8.757300,  8.760800,  8.764300,
  8.767800,  8.771300,  8.774800,  8.778300,  8.781800,  8.785300,  8.788800,
  8.792300,  8.795800,  8.799300,  8.802800,  8.806300,  8.809800,  8.813300,
  8.816800,  8.820300,  8.823800,  8.827300,  8.830800,  8.834300,  8.837800,
  8.841300,  8.844800,  8.848300,  8.851800,  8.855300,  8.858800,  8.862300,
  8.865800,  8.869300,  8.872800,  8.876300,  8.879800,  8.883300,  8.886800,
  8.890300,  8.893800,  8.897300,  8.900800,  8.904300,  8.907800,  8.911300,
  8.914800,  8.918300,  8.921800,  8.925300,  8.928800,  8.932300,  8.935800,
  8.939300,  8.942800,  8.946300,  8.949800,  8.953300,  8.956800,  8.960300,
  8.963800,  8.967300,  8.970800,  8.974300,  8.977800,  8.981300,  8.984800,
  8.988300,  8.991800,  8.995300,  8.998800,  9.002300,  9.005800,  9.009300,
  9.012800,  9.016300,  9.019800,  9.023300,  9.026800,  9.030300,  9.033800,
  9.037300,  9.040800,  9.044300,  9.047800,  9.051300,  9.054800,  9.058300,
  9.061800,  9.065300,  9.068800,  9.072300,  9.075800,  9.079300,  9.082800,
  9.086300,  9.089800,  9.093300,  9.096800,  9.100300,  9.103800,  9.107300,
  9.110800,  9.114300,  9.117800,  9.121300,  9.124800,  9.128300,  9.131800,
  9.135300,  9.138800,  9.142300,  9.145800,  9.149300,  9.152800,  9.156300,
  9.159800,  9.163300,  9.166800,  9.170300,  9.173800,  9.177300,  9.180800,
  9.184300,  9.187800,  9.191300,  9.194800,  9.198300,  9.201800,  9.205300,
  9.208800,  9.212300,  9.215800,  9.219300,  9.222800,  9.226300,  9.229800,
  9.233300,  9.236800,  9.240300,  9.243800,  9.247300,  9.250800,  9.254300,
  9.257800,  9.261300,  9.264800,  9.268300,  9.271800,  9.275300,  9.278800,
  9.282300,  9.285800,  9.289300,  9.292800,  9.296300,  9.299800,  9.303300,
  9.306800,  9.310300,  9.313800,  9.317300,  9.320800,  9.324300,  9.327800,
  9.331300,  9.334800,  9.338300,  9.341800,  9.345300,  9.348800,  9.352300,
  9.355800,  9.359300,  9.362800,  9.366300,  9.369800,  9.373300,  9.376800,
  9.380300,  9.383800,  9.387300,  9.390800,  9.394300,  9.397800,  9.401300,
  9.404800,  9.408300,  9.411800,  9.415300,  9.418800,  9.422300,  9.425800,
  9.429300,  9.432800,  9.436300,  9.439800,  9.443300,  9.446800,  9.450300,
  9.453800,  9.457300,  9.460800,  9.464300,  9.467800,  9.471300,  9.474800,
  9.478300,  9.481800,  9.485300,  9.488800,  9.492300,  9.495800,  9.499300,
  9.502800,  9.506300,  9.509800,  9.513300,  9.516800,  9.520300,  9.523800,
  9.527300,  9.530800,  9.534300,  9.537800,  9.541300,  9.544800,  9.548300,
  9.551800,  9.555300,  9.558800,  9.562300,  9.565800,  9.569300,  9.572800,
  9.576300,  9.579800,  9.583300,  9.586800,  9.590300,  9.593800,  9.597300,
  9.600800,  9.604300,  9.607800,  9.611300,  9.614800,  9.618300,  9.621800,
  9.625300,  9.628800,  9.632300,  9.635800,  9.639300,  9.642800,  9.646300,
  9.649800,  9.653300,  9.656800,  9.660300,  9.663800,  9.667300,  9.670800,
  9.674300,  9.677800,  9.681300,  9.684800,  9.688300,  9.691800,  9.695300,
  9.698800,  9.702300,  9.705800,  9.709300,  9.712800,  9.716300,  9.719800,
  9.723300,  9.726800,  9.730300,  9.733800,  9.737300,  9.740800,  9.744300,
  9.747800,  9.751300,  9.754800,  9.758300,  9.761800,  9.765300,  9.768800,
  9.772300,  9.775800,  9.779300,  9.782800,  9.786300,  9.789800,  9.793300,
  9.796800,  9.800300,  9.803800,  9.807300,  9.810800,  9.814300,  9.817800,
  9.821300,  9.824800,  9.828300,  9.831800,  9.835300,  9.838800,  9.842300,
  9.845800,  9.849300,  9.852800,  9.856300,  9.859800,  9.863300,  9.866800,
  9.870300,  9.873800,  9.877300,  9.880800,  9.884300,  9.887800,  9.891300,
  9.894800,  9.898300,  9.901800,  9.905300,  9.908800,  9.912300,  9.915800,
  9.919300,  9.922800,  9.926300,  9.929800,  9.933300,  9.936800,  9.940300,
  9.943800,  9.947300,  9.950800,  9.954300,  9.957800,  9.961300,  9.964800,
  9.968300,  9.971800,  9.975300,  9.978800,  9.982300,  9.985800,  9.989300,
  9.992800,  9.996300,  9.999800, 10.003300, 10.006800, 10.010300, 10.013800,
 10.017300, 10.020800, 10.024300, 10.027800, 10.031300, 10.034800, 10.038300,
 10.041800, 10.045300, 10.048800, 10.052300, 10.055800, 10.059300, 10.062800,
 10.066300, 10.069800, 10.073300, 10.076800, 10.080300, 10.083800, 10.087300,
 10.090800, 10.094300, 10.097800, 10.101300, 10.104800, 10.108300, 10.111800,
 10.115300, 10.118800, 10.122300, 10.125800, 10.129300, 10.132800, 10.136300,
 10.139800, 10.143300, 10.146800, 10.150300, 10.153800, 10.157300, 10.160800,
 10.164300, 10.167800, 10.171300, 10.174800, 10.178300, 10.181800, 10.185300,
 10.188800, 10.192300, 10.195800, 10.199300, 10.202800, 10.206300, 10.209800,
 10.213300, 10.216800, 10.220300, 10.223800, 10.227300, 10.230800, 10.234300,
 10.237800, 10.241300, 10.244800, 10.248300, 10.251800, 10.255300, 10.258800,
 10.262300, 10.265800, 10.269300, 10.272800, 10.276300, 10.279800, 10.283300,
 10.286800, 10.290300, 10.293800, 10.297300, 10.300800, 10.304300, 10.307800,
 10.311300, 10.314800, 10.318300, 10.321800, 10.325300, 10.328800, 10.332300,
 10.335800, 10.339300, 10.342800, 10.346300, 10.349800, 10.353300, 10.356800,
 10.360300, 10.363800, 10.367300, 10.370800, 10.374300, 10.377800, 10.381300,
 10.384800, 10.388300, 10.391800, 10.395300, 10.398800, 10.402300, 10.405800,
 10.409300, 10.412800, 10.416300, 10.419800, 10.423300, 10.426800, 10.430300,
 10.433800, 10.437300, 10.440800, 10.444300, 10.447800, 10.451300, 10.454800,
 10.458300, 10.461800, 10.465300, 10.468800, 10.472300, 10.475800, 10.479300,
 10.482800, 10.486300, 10.489800, 10.493300, 10.496800, 10.500300, 10.503800,
 10.507300, 10.510800, 10.514300, 10.517800, 10.521300, 10.524800, 10.528300,
 10.531800, 10.535300, 10.538800, 10.542300, 10.545800, 10.549300, 10.552800,
 10.556300, 10.559800, 10.563300, 10.566800, 10.570300, 10.573800, 10.577300,
 10.580800, 10.584300, 10.587800, 10.591300, 10.594800, 10.598300, 10.601800,
 10.605300, 10.608800, 10.612300, 10.615800, 10.619300, 10.622800, 10.626300,
 10.629800, 10.633300, 10.636800, 10.640300, 10.643800, 10.647300, 10.650800,
 10.654300, 10.657800, 10.661300, 10.664800, 10.668300, 10.671800, 10.675300,
 10.678800, 10.682300, 10.685800, 10.689300, 10.692800, 10.696300, 10.699800,
 10.703300, 10.706800, 10.710300, 10.713800, 10.717300, 10.720800, 10.724300,
 10.727800, 10.731300, 10.734800, 10.738300, 10.741800, 10.745300, 10.748800,
 10.752300, 10.755800, 10.759300, 10.762800, 10.766300, 10.769800, 10.773300,
 10.776800, 10.780300, 10.783800, 10.787300, 10.790800, 10.794300, 10.797800,
 10.801300, 10.804800, 10.808300, 10.811800, 10.815300, 10.818800, 10.822300,
 10.825800, 10.829300, 10.832800, 10.836300, 10.839800, 10.843300, 10.846800,
 10.850300, 10.853800, 10.857300, 10.860800, 10.864300, 10.867800, 10.871300,
 10.874800, 10.878300, 10.881800, 10.885300, 10.888800, 10.892300, 10.895800,
 10.899300, 10.902800, 10.906300, 10.909800, 10.913300, 10.916800, 10.920300,
 10.923800, 10.927300, 10.930800, 10.934300, 10.937800, 10.941300, 10.944800,
 10.948300, 10.951800, 10.955300, 10.958800, 10.962300, 10.965800, 10.969300,
 10.972800, 10.976300, 10.979800, 10.983300, 10.986800, 10.990300, 10.993800,
 10.997300, 11.000800, 11.004300, 11.007800, 11.011300, 11.014800, 11.018300,
 11.021800, 11.025300, 11.028800, 11.032300, 11.035800, 11.039300, 11.042800,
 11.046300, 11.049800, 11.053300, 11.056800, 11.060300, 11.063800, 11.067300,
 11.070800, 11.074300, 11.077800, 11.081300, 11.084800, 11.088300, 11.091800,
 11.095300, 11.098800, 11.102300, 11.105800, 11.109300, 11.112800, 11.116300,
 11.119800, 11.123300, 11.126800, 11.130300, 11.133800, 11.137300, 11.140800,
 11.144300, 11.147800, 11.151300, 11.154800, 11.158300, 11.161800, 11.165300,
 11.168800, 11.172300, 11.175800, 11.179300, 11.182800, 11.186300, 11.189800,
 11.193300, 11.196800, 11.200300, 11.203800, 11.207300, 11.210800, 11.214300,
 11.217800, 11.221300, 11.224800, 11.228300, 11.231800, 11.235300, 11.238800,
 11.242300, 11.245800, 11.249300, 11.252800, 11.256300, 11.259800, 11.263300,
 11.266800, 11.270300, 11.273800, 11.277300, 11.280800, 11.284300, 11.287800,
 11.291300, 11.294800, 11.298300, 11.301800, 11.305300, 11.308800, 11.312300,
 11.315800, 11.319300, 11.322800, 11.326300, 11.329800, 11.333300, 11.336800,
 11.340300, 11.343800, 11.347300, 11.350800, 11.354300, 11.357800, 11.361300,
 11.364800, 11.368300, 11.371800, 11.375300, 11.378800, 11.382300, 11.385800,
 11.389300, 11.392800, 11.396300, 11.399800, 11.403300, 11.406800, 11.410300,
 11.413800, 11.417300, 11.420800, 11.424300, 11.427800, 11.431300, 11.434800,
 11.438300, 11.441800, 11.445300, 11.448800, 11.452300, 11.455800, 11.459300,
 11.462800, 11.466300, 11.469800, 11.473300, 11.476800, 11.480300, 11.483800,
 11.487300, 11.490800, 11.494300, 11.497800, 11.501300, 11.504800, 11.508300,
 11.511800, 11.515300, 11.518800, 11.522300, 11.525800, 11.529300, 11.532800,
 11.536300, 11.539800, 11.543300, 11.546800, 11.550300, 11.553800, 11.557300,
 11.560800, 11.564300, 11.567800, 11.571300, 11.574800, 11.578300, 11.581800,
 11.585300, 11.588800, 11.592300, 11.595800, 11.599300, 11.602800, 11.606300,
 11.609800, 11.613300, 11.616800, 11.620300, 11.623800, 11.627300, 11.630800,
 11.634300, 11.637800, 11.641300, 11.644800, 11.648300, 11.651800, 11.655300,
 11.658800, 11.662300, 11.665800, 11.669300, 11.672800, 11.676300, 11.679800,
 11.683300, 11.686800, 11.690300, 11.693800, 11.697300, 11.700800, 11.704300,
 11.707800, 11.711300, 11.714800, 11.718300, 11.721800, 11.725300, 11.728800,
 11.732300, 11.735800, 11.739300, 11.742800, 11.746300, 11.749800, 11.753300,
 11.756800, 11.760300, 11.763800, 11.767300, 11.770800, 11.774300, 11.777800,
 11.781300, 11.784800, 11.788300, 11.791800, 11.795300, 11.798800, 11.802300,
 11.805800, 11.809300, 11.812800, 11.816300, 11.819800, 11.823300, 11.826800,
 11.830300, 11.833800, 11.837300, 11.840800, 11.844300, 11.847800, 11.851300,
 11.854800, 11.858300, 11.861800, 11.865300, 11.868800, 11.872300, 11.875800,
 11.879300, 11.882800, 11.886300, 11.889800, 11.893300, 11.896800, 11.900300,
 11.903800, 11.907300, 11.910800, 11.914300, 11.917800, 11.921300, 11.924800,
 11.928300, 11.931800, 11.935300, 11.938800, 11.942300, 11.945800, 11.949300,
 11.952800, 11.956300, 11.959800, 11.963300, 11.966800, 11.970300, 11.973800,
 11.977300, 11.980800, 11.984300, 11.987800, 11.991300, 11.994800, 11.998300,
 12.001800, 12.005300, 12.008800, 12.012300, 12.015800, 12.019300, 12.022800,
 12.026300, 12.029800, 12.033300, 12.036800, 12.040300, 12.043800, 12.047300,
 12.050800, 12.054300, 12.057800, 12.061300, 12.064800, 12.068300, 12.071800,
 12.075300, 12.078800, 12.082300, 12.085800, 12.089300, 12.092800, 12.096300,
 12.099800, 12.103300, 12.106800, 12.110300, 12.113800, 12.117300, 12.120800,
 12.124300, 12.127800, 12.131300, 12.134800, 12.138300, 12.141800, 12.145300,
 12.148800, 12.152300, 12.155800, 12.159300, 12.162800, 12.166300, 12.169800,
 12.173300, 12.176800, 12.180300, 12.183800, 12.187300, 12.190800, 12.194300,
 12.197800, 12.201300, 12.204800, 12.208300, 12.211800, 12.215300, 12.218800,
 12.222300, 12.225800, 12.229300, 12.232800, 12.236300, 12.239800, 12.243300,
 12.246800, 12.250300, 12.253800, 12.257300, 12.260800, 12.264300, 12.267800,
 12.271300, 12.274800, 12.278300, 12.281800, 12.285300, 12.288800, 12.292300,
 12.295800, 12.299300, 12.302800, 12.306300, 12.309800, 12.313300, 12.316800,
 12.320300, 12.323800, 12.327300, 12.330800, 12.334300, 12.337800, 12.341300,
 12.344800, 12.348300, 12.351800, 12.355300, 12.358800, 12.362300, 12.365800,
 12.369300, 12.372800, 12.376300, 12.379800, 12.383300, 12.386800, 12.390300,
 12.393800, 12.397300, 12.400800, 12.404300, 12.407800, 12.411300, 12.414800,
 12.418300, 12.421800, 12.425300, 12.428800, 12.432300, 12.435800, 12.439300,
 12.442800, 12.446300, 12.449800, 12.453300, 12.456800, 12.460300, 12.463800,
 12.467300, 12.470800, 12.474300, 12.477800, 12.481300, 12.484800, 12.488300,
 12.491800, 12.495300, 12.498800, 12.502300, 12.505800, 12.509300, 12.512800,
 12.516300, 12.519800, 12.523300, 12.526800, 12.530300, 12.533800, 12.537300,
 12.540800, 12.544300, 12.547800, 12.551300, 12.554800, 12.558300, 12.561800,
 12.565300, 12.568800, 12.572300, 12.575800, 12.579300, 12.582800, 12.586300,
 12.589800, 12.593300, 12.596800, 12.600300, 12.603800, 12.607300, 12.610800,
 12.614300, 12.617800, 12.621300, 12.624800, 12.628300, 12.631800, 12.635300,
 12.638800, 12.642300, 12.645800, 12.649300, 12.652800, 12.656300, 12.659800,
 12.663300, 12.666800, 12.670300, 12.673800, 12.677300, 12.680800, 12.684300,
 12.687800, 12.691300, 12.694800, 12.698300, 12.701800, 12.705300, 12.708800,
 12.712300, 12.715800, 12.719300, 12.722800, 12.726300, 12.729800, 12.733300,
 12.736800, 12.740300, 12.743800, 12.747300, 12.750800, 12.754300, 12.757800,
 12.761300, 12.764800, 12.768300, 12.771800, 12.775300, 12.778800, 12.782300,
 12.785800, 12.789300, 12.792800, 12.796300, 12.799800, 12.803300, 12.806800,
 12.810300, 12.813800, 12.817300, 12.820800, 12.824300, 12.827800, 12.831300,
 12.834800, 12.838300, 12.841800, 12.845300, 12.848800, 12.852300, 12.855800,
 12.859300, 12.862800, 12.866300, 12.869800, 12.873300, 12.876800, 12.880300,
 12.883800, 12.887300, 12.890800, 12.894300, 12.897800, 12.901300, 12.904800,
 12.908300, 12.911800, 12.915300, 12.918800, 12.922300, 12.925800, 12.929300,
 12.932800, 12.936300, 12.939800, 12.943300, 12.946800, 12.950300, 12.953800,
 12.957300, 12.960800, 12.964300, 12.967800, 12.971300, 12.974800, 12.978300,
 12.981800, 12.985300, 12.988800, 12.992300, 12.995800, 12.999300, 13.002800,
 13.006300, 13.009800, 13.013300, 13.016800, 13.020300, 13.023800, 13.027300,
 13.030800, 13.034300, 13.037800, 13.041300, 13.044800, 13.048300, 13.051800,
 13.055300, 13.058800, 13.062300, 13.065800, 13.069300, 13.072800, 13.076300,
 13.079800, 13.083300, 13.086800, 13.090300, 13.093800, 13.097300, 13.100800,
 13.104300, 13.107800, 13.111300, 13.114800, 13.118300, 13.121800, 13.125300,
 13.128800, 13.132300, 13.135800, 13.139300, 13.142800, 13.146300, 13.149800,
 13.153300, 13.156800, 13.160300, 13.163800, 13.167300, 13.170800, 13.174300,
 13.177800, 13.181300, 13.184800, 13.188300, 13.191800, 13.195300, 13.198800,
 13.202300, 13.205800, 13.209300, 13.212800, 13.216300, 13.219800, 13.223300,
 13.226800, 13.230300, 13.233800, 13.237300, 13.240800, 13.244300, 13.247800,
 13.251300, 13.254800, 13.258300, 13.261800, 13.265300, 13.268800, 13.272300,
 13.275800, 13.279300, 13.282800, 13.286300, 13.289800, 13.293300, 13.296800,
 13.300300, 13.303800, 13.307300, 13.310800, 13.314300, 13.317800, 13.321300,
 13.324800, 13.328300, 13.331800, 13.335300, 13.338800, 13.342300, 13.345800,
 13.349300, 13.352800, 13.356300, 13.359800, 13.363300, 13.366800, 13.370300,
 13.373800, 13.377300, 13.380800, 13.384300, 13.387800, 13.391300, 13.394800,
 13.398300, 13.401800, 13.405300, 13.408800, 13.412300, 13.415800, 13.419300,
 13.422800, 13.426300, 13.429800, 13.433300, 13.436800, 13.440300, 13.443800,
 13.447300, 13.450800, 13.454300, 13.457800, 13.461300, 13.464800, 13.468300,
 13.471800, 13.475300, 13.478800, 13.482300, 13.485800, 13.489300, 13.492800,
 13.496300, 13.499800, 13.503300, 13.506800, 13.510300, 13.513800, 13.517300,
 13.520800, 13.524300, 13.527800, 13.531300, 13.534800, 13.538300, 13.541800,
 13.545300, 13.548800, 13.552300, 13.555800, 13.559300, 13.562800, 13.566300,
 13.569800, 13.573300, 13.576800, 13.580300, 13.583800, 13.587300, 13.590800,
 13.594300, 13.597800, 13.601300, 13.604800, 13.608300, 13.611800, 13.615300,
 13.618800, 13.622300, 13.625800, 13.629300, 13.632800, 13.636300, 13.639800,
 13.643300, 13.646800, 13.650300, 13.653800, 13.657300, 13.660800, 13.664300,
 13.667800, 13.671300, 13.674800, 13.678300, 13.681800, 13.685300, 13.688800,
 13.692300, 13.695800, 13.699300, 13.702800, 13.706300, 13.709800, 13.713300,
 13.716800, 13.720300, 13.723800, 13.727300, 13.730800, 13.734300, 13.737800,
 13.741300, 13.744800, 13.748300, 13.751800, 13.755300, 13.758800, 13.762300,
 13.765800, 13.769300, 13.772800, 13.776300, 13.779800, 13.783300, 13.786800,
 13.790300, 13.793800, 13.797300, 13.800800, 13.804300, 13.807800, 13.811300,
 13.814800, 13.818300, 13.821800, 13.825300, 13.828800, 13.832300, 13.835800,
 13.839300, 13.842800, 13.846300, 13.849800, 13.853300, 13.856800, 13.860300,
 13.863800, 13.867300, 13.870800, 13.874300, 13.877800, 13.881300, 13.884800,
 13.888300, 13.891800, 13.895300, 13.898800, 13.902300, 13.905800, 13.909300,
 13.912800, 13.916300, 13.919800, 13.923300, 13.926800, 13.930300, 13.933800,
 13.937300, 13.940800, 13.944300, 13.947800, 13.951300, 13.954800, 13.958300,
 13.961800, 13.965300, 13.968800, 13.972300, 13.975800, 13.979300, 13.982800,
 13.986300, 13.989800, 13.993300, 13.996800, 14.000300, 14.003800, 14.007300,
 14.010800, 14.014300, 14.017800, 14.021300, 14.024800, 14.028300, 14.031800,
 14.035300, 14.038800, 14.042300, 14.045800, 14.049300, 14.052800, 14.056300,
 14.059800, 14.063300, 14.066800, 14.070300, 14.073800, 14.077300, 14.080800,
 14.084300, 14.087800, 14.091300, 14.094800, 14.098300, 14.101800, 14.105300,
 14.108800, 14.112300, 14.115800, 14.119300, 14.122800, 14.126300, 14.129800,
 14.133300, 14.136800, 14.140300, 14.143800, 14.147300, 14.150800, 14.154300,
 14.157800, 14.161300, 14.164800, 14.168300, 14.171800, 14.175300, 14.178800,
 14.182300, 14.185800, 14.189300, 14.192800, 14.196300, 14.199800, 14.203300,
 14.206800, 14.210300, 14.213800, 14.217300, 14.220800, 14.224300, 14.227800,
 14.231300, 14.234800, 14.238300, 14.241800, 14.245300, 14.248800, 14.252300,
 14.255800, 14.259300, 14.262800, 14.266300, 14.269800, 14.273300, 14.276800,
 14.280300, 14.283800, 14.287300, 14.290800, 14.294300, 14.297800, 14.301300,
 14.304800, 14.308300, 14.311800, 14.315300, 14.318800, 14.322300, 14.325800,
 14.329300, 14.332800, 14.336300, 14.339800, 14.343300, 14.346800, 14.350300,
 14.353800, 14.357300, 14.360800, 14.364300, 14.367800, 14.371300, 14.374800,
 14.378300, 14.381800, 14.385300, 14.388800, 14.392300, 14.395800, 14.399300,
 14.402800, 14.406300, 14.409800, 14.413300, 14.416800, 14.420300, 14.423800,
 14.427300, 14.430800, 14.434300, 14.437800, 14.441300, 14.444800, 14.448300,
 14.451800, 14.455300, 14.458800, 14.462300, 14.465800, 14.469300, 14.472800,
 14.476300, 14.479800, 14.483300, 14.486800, 14.490300, 14.493800, 14.497300,
 14.500800, 14.504300, 14.507800, 14.511300}
