ENVI
description = {
             NPP VIIRS Resampling Filter Functions}
samples=       12676
lines= 21
bands=1
headeroffset = 0
file type = ENVI Spectral Library
data type = 4
interleave = bsq
byte order = 0
wavelength units = Micrometers
z plot titles = {Wavelength, Percent Normalized Spectral Response}
z plot range = {0.00, 1.00}
reflectance scale factor = 1.0
band names = {
             NPP VIIRS Band Filter Functions}
spectra names = {
I1, I2, I3, I4, I5, M1, M2, M3 ,M4, M5, M6, M7, M8, M9, M10, M11, M12, M13
,M14, M15, M16 }
wavelength ={
     0.361000,     0.362000,     0.363000,     0.364000,     0.365000,
     0.366000,     0.367000,     0.368000,     0.369000,     0.370000,
     0.371000,     0.372000,     0.373000,     0.374000,     0.375000,
     0.376000,     0.377000,     0.378000,     0.379000,     0.380000,
     0.381000,     0.382000,     0.383000,     0.384000,     0.385000,
     0.386000,     0.387000,     0.388000,     0.389000,     0.390000,
     0.391000,     0.392000,     0.393000,     0.394000,     0.395000,
     0.396000,     0.397000,     0.398000,     0.399000,     0.400000,
     0.401000,     0.402000,     0.403000,     0.404000,     0.405000,
     0.406000,     0.407000,     0.408000,     0.409000,     0.410000,
     0.411000,     0.412000,     0.413000,     0.414000,     0.415000,
     0.416000,     0.417000,     0.418000,     0.419000,     0.420000,
     0.421000,     0.422000,     0.423000,     0.424000,     0.425000,
     0.426000,     0.427000,     0.428000,     0.429000,     0.430000,
     0.431000,     0.432000,     0.433000,     0.434000,     0.435000,
     0.436000,     0.437000,     0.438000,     0.439000,     0.440000,
     0.441000,     0.442000,     0.443000,     0.444000,     0.445000,
     0.446000,     0.447000,     0.448000,     0.449000,     0.450000,
     0.451000,     0.452000,     0.453000,     0.454000,     0.455000,
     0.456000,     0.457000,     0.458000,     0.459000,     0.460000,
     0.461000,     0.462000,     0.463000,     0.464000,     0.465000,
     0.466000,     0.467000,     0.468000,     0.469000,     0.470000,
     0.471000,     0.472000,     0.473000,     0.474000,     0.475000,
     0.476000,     0.477000,     0.478000,     0.479000,     0.480000,
     0.481000,     0.482000,     0.483000,     0.484000,     0.485000,
     0.486000,     0.487000,     0.488000,     0.489000,     0.490000,
     0.491000,     0.492000,     0.493000,     0.494000,     0.495000,
     0.496000,     0.497000,     0.498000,     0.499000,     0.500000,
     0.501000,     0.502000,     0.503000,     0.504000,     0.505000,
     0.506000,     0.507000,     0.508000,     0.509000,     0.510000,
     0.511000,     0.512000,     0.513000,     0.514000,     0.515000,
     0.516000,     0.517000,     0.518000,     0.519000,     0.520000,
     0.521000,     0.522000,     0.523000,     0.524000,     0.525000,
     0.526000,     0.527000,     0.528000,     0.529000,     0.530000,
     0.531000,     0.532000,     0.533000,     0.534000,     0.535000,
     0.536000,     0.537000,     0.538000,     0.539000,     0.540000,
     0.541000,     0.542000,     0.543000,     0.544000,     0.545000,
     0.546000,     0.547000,     0.548000,     0.549000,     0.550000,
     0.551000,     0.552000,     0.553000,     0.554000,     0.555000,
     0.556000,     0.557000,     0.558000,     0.559000,     0.560000,
     0.561000,     0.562000,     0.563000,     0.564000,     0.565000,
     0.566000,     0.567000,     0.568000,     0.569000,     0.570000,
     0.571000,     0.572000,     0.573000,     0.574000,     0.575000,
     0.576000,     0.577000,     0.578000,     0.579000,     0.580000,
     0.581000,     0.582000,     0.583000,     0.584000,     0.585000,
     0.586000,     0.587000,     0.588000,     0.589000,     0.590000,
     0.591000,     0.592000,     0.593000,     0.594000,     0.595000,
     0.596000,     0.597000,     0.598000,     0.599000,     0.600000,
     0.601000,     0.602000,     0.603000,     0.604000,     0.605000,
     0.606000,     0.607000,     0.608000,     0.609000,     0.610000,
     0.611000,     0.612000,     0.613000,     0.614000,     0.615000,
     0.616000,     0.617000,     0.618000,     0.619000,     0.620000,
     0.621000,     0.622000,     0.623000,     0.624000,     0.625000,
     0.626000,     0.627000,     0.628000,     0.629000,     0.630000,
     0.631000,     0.632000,     0.633000,     0.634000,     0.635000,
     0.636000,     0.637000,     0.638000,     0.639000,     0.640000,
     0.641000,     0.642000,     0.643000,     0.644000,     0.645000,
     0.646000,     0.647000,     0.648000,     0.649000,     0.650000,
     0.651000,     0.652000,     0.653000,     0.654000,     0.655000,
     0.656000,     0.657000,     0.658000,     0.659000,     0.660000,
     0.661000,     0.662000,     0.663000,     0.664000,     0.665000,
     0.666000,     0.667000,     0.668000,     0.669000,     0.670000,
     0.671000,     0.672000,     0.673000,     0.674000,     0.675000,
     0.676000,     0.677000,     0.678000,     0.679000,     0.680000,
     0.681000,     0.682000,     0.683000,     0.684000,     0.685000,
     0.686000,     0.687000,     0.688000,     0.689000,     0.690000,
     0.691000,     0.692000,     0.693000,     0.694000,     0.695000,
     0.696000,     0.697000,     0.698000,     0.699000,     0.700000,
     0.701000,     0.702000,     0.703000,     0.704000,     0.705000,
     0.706000,     0.707000,     0.708000,     0.709000,     0.710000,
     0.711000,     0.712000,     0.713000,     0.714000,     0.715000,
     0.716000,     0.717000,     0.718000,     0.719000,     0.720000,
     0.721000,     0.722000,     0.723000,     0.724000,     0.725000,
     0.726000,     0.727000,     0.728000,     0.729000,     0.730000,
     0.731000,     0.732000,     0.733000,     0.734000,     0.735000,
     0.736000,     0.737000,     0.738000,     0.739000,     0.740000,
     0.741000,     0.742000,     0.743000,     0.744000,     0.745000,
     0.746000,     0.747000,     0.748000,     0.749000,     0.750000,
     0.751000,     0.752000,     0.753000,     0.754000,     0.755000,
     0.756000,     0.757000,     0.758000,     0.759000,     0.760000,
     0.761000,     0.762000,     0.763000,     0.764000,     0.765000,
     0.766000,     0.767000,     0.768000,     0.769000,     0.770000,
     0.771000,     0.772000,     0.773000,     0.774000,     0.775000,
     0.776000,     0.777000,     0.778000,     0.779000,     0.780000,
     0.781000,     0.782000,     0.783000,     0.784000,     0.785000,
     0.786000,     0.787000,     0.788000,     0.789000,     0.790000,
     0.791000,     0.792000,     0.793000,     0.794000,     0.795000,
     0.796000,     0.797000,     0.798000,     0.799000,     0.800000,
     0.801000,     0.802000,     0.803000,     0.804000,     0.805000,
     0.806000,     0.807000,     0.808000,     0.809000,     0.810000,
     0.811000,     0.812000,     0.813000,     0.814000,     0.815000,
     0.816000,     0.817000,     0.818000,     0.819000,     0.820000,
     0.821000,     0.822000,     0.823000,     0.824000,     0.825000,
     0.826000,     0.827000,     0.828000,     0.829000,     0.830000,
     0.831000,     0.832000,     0.833000,     0.834000,     0.835000,
     0.836000,     0.837000,     0.838000,     0.839000,     0.840000,
     0.841000,     0.842000,     0.843000,     0.844000,     0.845000,
     0.846000,     0.847000,     0.848000,     0.849000,     0.850000,
     0.851000,     0.852000,     0.853000,     0.854000,     0.855000,
     0.856000,     0.857000,     0.858000,     0.859000,     0.860000,
     0.861000,     0.862000,     0.863000,     0.864000,     0.865000,
     0.866000,     0.867000,     0.868000,     0.869000,     0.870000,
     0.871000,     0.872000,     0.873000,     0.874000,     0.875000,
     0.876000,     0.877000,     0.878000,     0.879000,     0.880000,
     0.881000,     0.882000,     0.883000,     0.884000,     0.885000,
     0.886000,     0.887000,     0.888000,     0.889000,     0.890000,
     0.891000,     0.892000,     0.893000,     0.894000,     0.895000,
     0.896000,     0.897000,     0.898000,     0.899000,     0.900000,
     0.901000,     0.902000,     0.903000,     0.904000,     0.905000,
     0.906000,     0.907000,     0.908000,     0.909000,     0.910000,
     0.911000,     0.912000,     0.913000,     0.914000,     0.915000,
     0.916000,     0.917000,     0.918000,     0.919000,     0.920000,
     0.921000,     0.922000,     0.923000,     0.924000,     0.925000,
     0.926000,     0.927000,     0.928000,     0.929000,     0.930000,
     0.931000,     0.932000,     0.933000,     0.934000,     0.935000,
     0.936000,     0.937000,     0.938000,     0.939000,     0.940000,
     0.941000,     0.942000,     0.943000,     0.944000,     0.945000,
     0.946000,     0.947000,     0.948000,     0.949000,     0.950000,
     0.951000,     0.952000,     0.953000,     0.954000,     0.955000,
     0.956000,     0.957000,     0.958000,     0.959000,     0.960000,
     0.961000,     0.962000,     0.963000,     0.964000,     0.965000,
     0.966000,     0.967000,     0.968000,     0.969000,     0.970000,
     0.971000,     0.972000,     0.973000,     0.974000,     0.975000,
     0.976000,     0.977000,     0.978000,     0.979000,     0.980000,
     0.981000,     0.982000,     0.983000,     0.984000,     0.985000,
     0.986000,     0.987000,     0.988000,     0.989000,     0.990000,
     0.991000,     0.992000,     0.993000,     0.994000,     0.995000,
     0.996000,     0.997000,     0.998000,     0.999000,      1.00000,
      1.00100,      1.00200,      1.00300,      1.00400,      1.00500,
      1.00600,      1.00700,      1.00800,      1.00900,      1.01000,
      1.01100,      1.01200,      1.01300,      1.01400,      1.01500,
      1.01600,      1.01700,      1.01800,      1.01900,      1.02000,
      1.02100,      1.02200,      1.02300,      1.02400,      1.02500,
      1.02600,      1.02700,      1.02800,      1.02900,      1.03000,
      1.03100,      1.03200,      1.03300,      1.03400,      1.03500,
      1.03600,      1.03700,      1.03800,      1.03900,      1.04000,
      1.04100,      1.04200,      1.04300,      1.04400,      1.04500,
      1.04600,      1.04700,      1.04800,      1.04900,      1.05000,
      1.05100,      1.05200,      1.05300,      1.05400,      1.05500,
      1.05600,      1.05700,      1.05800,      1.05900,      1.06000,
      1.06100,      1.06200,      1.06300,      1.06400,      1.06500,
      1.06600,      1.06700,      1.06800,      1.06900,      1.07000,
      1.07100,      1.07200,      1.07300,      1.07400,      1.07500,
      1.07600,      1.07700,      1.07800,      1.07900,      1.08000,
      1.08100,      1.08200,      1.08300,      1.08400,      1.08500,
      1.08600,      1.08700,      1.08800,      1.08900,      1.09000,
      1.09100,      1.09200,      1.09300,      1.09400,      1.09500,
      1.09600,      1.09700,      1.09800,      1.09900,      1.10000,
      1.10100,      1.10200,      1.10300,      1.10400,      1.10500,
      1.10600,      1.10700,      1.10800,      1.10900,      1.11000,
      1.11100,      1.11200,      1.11300,      1.11400,      1.11500,
      1.11600,      1.11700,      1.11800,      1.11900,      1.12000,
      1.12100,      1.12200,      1.12300,      1.12400,      1.12500,
      1.12600,      1.12700,      1.12800,      1.12900,      1.13000,
      1.13100,      1.13200,      1.13300,      1.13400,      1.13500,
      1.13600,      1.13700,      1.13800,      1.13900,      1.14000,
      1.14100,      1.14200,      1.14300,      1.14400,      1.14500,
      1.14600,      1.14700,      1.14800,      1.14900,      1.15000,
      1.15100,      1.15200,      1.15300,      1.15400,      1.15500,
      1.15600,      1.15700,      1.15800,      1.15900,      1.16000,
      1.16100,      1.16200,      1.16300,      1.16400,      1.16500,
      1.16600,      1.16700,      1.16800,      1.16900,      1.17000,
      1.17100,      1.17200,      1.17300,      1.17400,      1.17500,
      1.17600,      1.17700,      1.17800,      1.17900,      1.18000,
      1.18100,      1.18200,      1.18300,      1.18400,      1.18500,
      1.18600,      1.18700,      1.18800,      1.18900,      1.19000,
      1.19100,      1.19200,      1.19300,      1.19400,      1.19500,
      1.19600,      1.19700,      1.19800,      1.19900,      1.20000,
      1.20100,      1.20200,      1.20300,      1.20400,      1.20500,
      1.20600,      1.20700,      1.20800,      1.20900,      1.21000,
      1.21100,      1.21200,      1.21300,      1.21400,      1.21500,
      1.21600,      1.21700,      1.21800,      1.21900,      1.22000,
      1.22100,      1.22200,      1.22300,      1.22400,      1.22500,
      1.22600,      1.22700,      1.22800,      1.22900,      1.23000,
      1.23100,      1.23200,      1.23300,      1.23400,      1.23500,
      1.23600,      1.23700,      1.23800,      1.23900,      1.24000,
      1.24100,      1.24200,      1.24300,      1.24400,      1.24500,
      1.24600,      1.24700,      1.24800,      1.24900,      1.25000,
      1.25100,      1.25200,      1.25300,      1.25400,      1.25500,
      1.25600,      1.25700,      1.25800,      1.25900,      1.26000,
      1.26100,      1.26200,      1.26300,      1.26400,      1.26500,
      1.26600,      1.26700,      1.26800,      1.26900,      1.27000,
      1.27100,      1.27200,      1.27300,      1.27400,      1.27500,
      1.27600,      1.27700,      1.27800,      1.27900,      1.28000,
      1.28100,      1.28200,      1.28300,      1.28400,      1.28500,
      1.28600,      1.28700,      1.28800,      1.28900,      1.29000,
      1.29100,      1.29200,      1.29300,      1.29400,      1.29500,
      1.29600,      1.29700,      1.29800,      1.29900,      1.30000,
      1.30100,      1.30200,      1.30300,      1.30400,      1.30500,
      1.30600,      1.30700,      1.30800,      1.30900,      1.31000,
      1.31100,      1.31200,      1.31300,      1.31400,      1.31500,
      1.31600,      1.31700,      1.31800,      1.31900,      1.32000,
      1.32100,      1.32200,      1.32300,      1.32400,      1.32500,
      1.32600,      1.32700,      1.32800,      1.32900,      1.33000,
      1.33100,      1.33200,      1.33300,      1.33400,      1.33500,
      1.33600,      1.33700,      1.33800,      1.33900,      1.34000,
      1.34100,      1.34200,      1.34300,      1.34400,      1.34500,
      1.34600,      1.34700,      1.34800,      1.34900,      1.35000,
      1.35100,      1.35200,      1.35300,      1.35400,      1.35500,
      1.35600,      1.35700,      1.35800,      1.35900,      1.36000,
      1.36100,      1.36200,      1.36300,      1.36400,      1.36500,
      1.36600,      1.36700,      1.36800,      1.36900,      1.37000,
      1.37100,      1.37200,      1.37300,      1.37400,      1.37500,
      1.37600,      1.37700,      1.37800,      1.37900,      1.38000,
      1.38100,      1.38200,      1.38300,      1.38400,      1.38500,
      1.38600,      1.38700,      1.38800,      1.38900,      1.39000,
      1.39100,      1.39200,      1.39300,      1.39400,      1.39500,
      1.39600,      1.39700,      1.39800,      1.39900,      1.40000,
      1.40100,      1.40200,      1.40300,      1.40400,      1.40500,
      1.40600,      1.40700,      1.40800,      1.40900,      1.41000,
      1.41100,      1.41200,      1.41300,      1.41400,      1.41500,
      1.41600,      1.41700,      1.41800,      1.41900,      1.42000,
      1.42100,      1.42200,      1.42300,      1.42400,      1.42500,
      1.42600,      1.42700,      1.42800,      1.42900,      1.43000,
      1.43100,      1.43200,      1.43300,      1.43400,      1.43500,
      1.43600,      1.43700,      1.43800,      1.43900,      1.44000,
      1.44100,      1.44200,      1.44300,      1.44400,      1.44500,
      1.44600,      1.44700,      1.44800,      1.44900,      1.45000,
      1.45100,      1.45200,      1.45300,      1.45400,      1.45500,
      1.45600,      1.45700,      1.45800,      1.45900,      1.46000,
      1.46100,      1.46200,      1.46300,      1.46400,      1.46500,
      1.46600,      1.46700,      1.46800,      1.46900,      1.47000,
      1.47100,      1.47200,      1.47300,      1.47400,      1.47500,
      1.47600,      1.47700,      1.47800,      1.47900,      1.48000,
      1.48100,      1.48200,      1.48300,      1.48400,      1.48500,
      1.48600,      1.48700,      1.48800,      1.48900,      1.49000,
      1.49100,      1.49200,      1.49300,      1.49400,      1.49500,
      1.49600,      1.49700,      1.49800,      1.49900,      1.50000,
      1.50100,      1.50200,      1.50300,      1.50400,      1.50500,
      1.50600,      1.50700,      1.50800,      1.50900,      1.51000,
      1.51100,      1.51200,      1.51300,      1.51400,      1.51500,
      1.51600,      1.51700,      1.51800,      1.51900,      1.52000,
      1.52100,      1.52200,      1.52300,      1.52400,      1.52500,
      1.52600,      1.52700,      1.52800,      1.52900,      1.53000,
      1.53100,      1.53200,      1.53300,      1.53400,      1.53500,
      1.53600,      1.53700,      1.53800,      1.53900,      1.54000,
      1.54100,      1.54200,      1.54300,      1.54400,      1.54500,
      1.54600,      1.54700,      1.54800,      1.54900,      1.55000,
      1.55100,      1.55200,      1.55300,      1.55400,      1.55500,
      1.55600,      1.55700,      1.55800,      1.55900,      1.56000,
      1.56100,      1.56200,      1.56300,      1.56400,      1.56500,
      1.56600,      1.56700,      1.56800,      1.56900,      1.57000,
      1.57100,      1.57200,      1.57300,      1.57400,      1.57500,
      1.57600,      1.57700,      1.57800,      1.57900,      1.58000,
      1.58100,      1.58200,      1.58300,      1.58400,      1.58500,
      1.58600,      1.58700,      1.58800,      1.58900,      1.59000,
      1.59100,      1.59200,      1.59300,      1.59400,      1.59500,
      1.59600,      1.59700,      1.59800,      1.59900,      1.60000,
      1.60100,      1.60200,      1.60300,      1.60400,      1.60500,
      1.60600,      1.60700,      1.60800,      1.60900,      1.61000,
      1.61100,      1.61200,      1.61300,      1.61400,      1.61500,
      1.61600,      1.61700,      1.61800,      1.61900,      1.62000,
      1.62100,      1.62200,      1.62300,      1.62400,      1.62500,
      1.62600,      1.62700,      1.62800,      1.62900,      1.63000,
      1.63100,      1.63200,      1.63300,      1.63400,      1.63500,
      1.63600,      1.63700,      1.63800,      1.63900,      1.64000,
      1.64100,      1.64200,      1.64300,      1.64400,      1.64500,
      1.64600,      1.64700,      1.64800,      1.64900,      1.65000,
      1.65100,      1.65200,      1.65300,      1.65400,      1.65500,
      1.65600,      1.65700,      1.65800,      1.65900,      1.66000,
      1.66100,      1.66200,      1.66300,      1.66400,      1.66500,
      1.66600,      1.66700,      1.66800,      1.66900,      1.67000,
      1.67100,      1.67200,      1.67300,      1.67400,      1.67500,
      1.67600,      1.67700,      1.67800,      1.67900,      1.68000,
      1.68100,      1.68200,      1.68300,      1.68400,      1.68500,
      1.68600,      1.68700,      1.68800,      1.68900,      1.69000,
      1.69100,      1.69200,      1.69300,      1.69400,      1.69500,
      1.69600,      1.69700,      1.69800,      1.69900,      1.70000,
      1.70100,      1.70200,      1.70300,      1.70400,      1.70500,
      1.70600,      1.70700,      1.70800,      1.70900,      1.71000,
      1.71100,      1.71200,      1.71300,      1.71400,      1.71500,
      1.71600,      1.71700,      1.71800,      1.71900,      1.72000,
      1.72100,      1.72200,      1.72300,      1.72400,      1.72500,
      1.72600,      1.72700,      1.72800,      1.72900,      1.73000,
      1.73100,      1.73200,      1.73300,      1.73400,      1.73500,
      1.73600,      1.73700,      1.73800,      1.73900,      1.74000,
      1.74100,      1.74200,      1.74300,      1.74400,      1.74500,
      1.74600,      1.74700,      1.74800,      1.74900,      1.75000,
      1.75100,      1.75200,      1.75300,      1.75400,      1.75500,
      1.75600,      1.75700,      1.75800,      1.75900,      1.76000,
      1.76100,      1.76200,      1.76300,      1.76400,      1.76500,
      1.76600,      1.76700,      1.76800,      1.76900,      1.77000,
      1.77100,      1.77200,      1.77300,      1.77400,      1.77500,
      1.77600,      1.77700,      1.77800,      1.77900,      1.78000,
      1.78100,      1.78200,      1.78300,      1.78400,      1.78500,
      1.78600,      1.78700,      1.78800,      1.78900,      1.79000,
      1.79100,      1.79200,      1.79300,      1.79400,      1.79500,
      1.79600,      1.79700,      1.79800,      1.79900,      1.80000,
      1.80100,      1.80200,      1.80300,      1.80400,      1.80500,
      1.80600,      1.80700,      1.80800,      1.80900,      1.81000,
      1.81100,      1.81200,      1.81300,      1.81400,      1.81500,
      1.81600,      1.81700,      1.81800,      1.81900,      1.82000,
      1.82100,      1.82200,      1.82300,      1.82400,      1.82500,
      1.82600,      1.82700,      1.82800,      1.82900,      1.83000,
      1.83100,      1.83200,      1.83300,      1.83400,      1.83500,
      1.83600,      1.83700,      1.83800,      1.83900,      1.84000,
      1.84100,      1.84200,      1.84300,      1.84400,      1.84500,
      1.84600,      1.84700,      1.84800,      1.84900,      1.85000,
      1.85100,      1.85200,      1.85300,      1.85400,      1.85500,
      1.85600,      1.85700,      1.85800,      1.85900,      1.86000,
      1.86100,      1.86200,      1.86300,      1.86400,      1.86500,
      1.86600,      1.86700,      1.86800,      1.86900,      1.87000,
      1.87100,      1.87200,      1.87300,      1.87400,      1.87500,
      1.87600,      1.87700,      1.87800,      1.87900,      1.88000,
      1.88100,      1.88200,      1.88300,      1.88400,      1.88500,
      1.88600,      1.88700,      1.88800,      1.88900,      1.89000,
      1.89100,      1.89200,      1.89300,      1.89400,      1.89500,
      1.89600,      1.89700,      1.89800,      1.89900,      1.90000,
      1.90100,      1.90200,      1.90300,      1.90400,      1.90500,
      1.90600,      1.90700,      1.90800,      1.90900,      1.91000,
      1.91100,      1.91200,      1.91300,      1.91400,      1.91500,
      1.91600,      1.91700,      1.91800,      1.91900,      1.92000,
      1.92100,      1.92200,      1.92300,      1.92400,      1.92500,
      1.92600,      1.92700,      1.92800,      1.92900,      1.93000,
      1.93100,      1.93200,      1.93300,      1.93400,      1.93500,
      1.93600,      1.93700,      1.93800,      1.93900,      1.94000,
      1.94100,      1.94200,      1.94300,      1.94400,      1.94500,
      1.94600,      1.94700,      1.94800,      1.94900,      1.95000,
      1.95100,      1.95200,      1.95300,      1.95400,      1.95500,
      1.95600,      1.95700,      1.95800,      1.95900,      1.96000,
      1.96100,      1.96200,      1.96300,      1.96400,      1.96500,
      1.96600,      1.96700,      1.96800,      1.96900,      1.97000,
      1.97100,      1.97200,      1.97300,      1.97400,      1.97500,
      1.97600,      1.97700,      1.97800,      1.97900,      1.98000,
      1.98100,      1.98200,      1.98300,      1.98400,      1.98500,
      1.98600,      1.98700,      1.98800,      1.98900,      1.99000,
      1.99100,      1.99200,      1.99300,      1.99400,      1.99500,
      1.99600,      1.99700,      1.99800,      1.99900,      2.00000,
      2.00100,      2.00200,      2.00300,      2.00400,      2.00500,
      2.00600,      2.00700,      2.00800,      2.00900,      2.01000,
      2.01100,      2.01200,      2.01300,      2.01400,      2.01500,
      2.01600,      2.01700,      2.01800,      2.01900,      2.02000,
      2.02100,      2.02200,      2.02300,      2.02400,      2.02500,
      2.02600,      2.02700,      2.02800,      2.02900,      2.03000,
      2.03100,      2.03200,      2.03300,      2.03400,      2.03500,
      2.03600,      2.03700,      2.03800,      2.03900,      2.04000,
      2.04100,      2.04200,      2.04300,      2.04400,      2.04500,
      2.04600,      2.04700,      2.04800,      2.04900,      2.05000,
      2.05100,      2.05200,      2.05300,      2.05400,      2.05500,
      2.05600,      2.05700,      2.05800,      2.05900,      2.06000,
      2.06100,      2.06200,      2.06300,      2.06400,      2.06500,
      2.06600,      2.06700,      2.06800,      2.06900,      2.07000,
      2.07100,      2.07200,      2.07300,      2.07400,      2.07500,
      2.07600,      2.07700,      2.07800,      2.07900,      2.08000,
      2.08100,      2.08200,      2.08300,      2.08400,      2.08500,
      2.08600,      2.08700,      2.08800,      2.08900,      2.09000,
      2.09100,      2.09200,      2.09300,      2.09400,      2.09500,
      2.09600,      2.09700,      2.09800,      2.09900,      2.10000,
      2.10100,      2.10200,      2.10300,      2.10400,      2.10500,
      2.10600,      2.10700,      2.10800,      2.10900,      2.11000,
      2.11100,      2.11200,      2.11300,      2.11400,      2.11500,
      2.11600,      2.11700,      2.11800,      2.11900,      2.12000,
      2.12100,      2.12200,      2.12300,      2.12400,      2.12500,
      2.12600,      2.12700,      2.12800,      2.12900,      2.13000,
      2.13100,      2.13200,      2.13300,      2.13400,      2.13500,
      2.13600,      2.13700,      2.13800,      2.13900,      2.14000,
      2.14100,      2.14200,      2.14300,      2.14400,      2.14500,
      2.14600,      2.14700,      2.14800,      2.14900,      2.15000,
      2.15100,      2.15200,      2.15300,      2.15400,      2.15500,
      2.15600,      2.15700,      2.15800,      2.15900,      2.16000,
      2.16100,      2.16200,      2.16300,      2.16400,      2.16500,
      2.16600,      2.16700,      2.16800,      2.16900,      2.17000,
      2.17100,      2.17200,      2.17300,      2.17400,      2.17500,
      2.17600,      2.17700,      2.17800,      2.17900,      2.18000,
      2.18100,      2.18200,      2.18300,      2.18400,      2.18500,
      2.18600,      2.18700,      2.18800,      2.18900,      2.19000,
      2.19100,      2.19200,      2.19300,      2.19400,      2.19500,
      2.19600,      2.19700,      2.19800,      2.19900,      2.20000,
      2.20100,      2.20200,      2.20300,      2.20400,      2.20500,
      2.20600,      2.20700,      2.20800,      2.20900,      2.21000,
      2.21100,      2.21200,      2.21300,      2.21400,      2.21500,
      2.21600,      2.21700,      2.21800,      2.21900,      2.22000,
      2.22100,      2.22200,      2.22300,      2.22400,      2.22500,
      2.22600,      2.22700,      2.22800,      2.22900,      2.23000,
      2.23100,      2.23200,      2.23300,      2.23400,      2.23500,
      2.23600,      2.23700,      2.23800,      2.23900,      2.24000,
      2.24100,      2.24200,      2.24300,      2.24400,      2.24500,
      2.24600,      2.24700,      2.24800,      2.24900,      2.25000,
      2.25100,      2.25200,      2.25300,      2.25400,      2.25500,
      2.25600,      2.25700,      2.25800,      2.25900,      2.26000,
      2.26100,      2.26200,      2.26300,      2.26400,      2.26500,
      2.26600,      2.26700,      2.26800,      2.26900,      2.27000,
      2.27100,      2.27200,      2.27300,      2.27400,      2.27500,
      2.27600,      2.27700,      2.27800,      2.27900,      2.28000,
      2.28100,      2.28200,      2.28300,      2.28400,      2.28500,
      2.28600,      2.28700,      2.28800,      2.28900,      2.29000,
      2.29100,      2.29200,      2.29300,      2.29400,      2.29500,
      2.29600,      2.29700,      2.29800,      2.29900,      2.30000,
      2.30100,      2.30200,      2.30300,      2.30400,      2.30500,
      2.30600,      2.30700,      2.30800,      2.30900,      2.31000,
      2.31100,      2.31200,      2.31300,      2.31400,      2.31500,
      2.31600,      2.31700,      2.31800,      2.31900,      2.32000,
      2.32100,      2.32200,      2.32300,      2.32400,      2.32500,
      2.32600,      2.32700,      2.32800,      2.32900,      2.33000,
      2.33100,      2.33200,      2.33300,      2.33400,      2.33500,
      2.33600,      2.33700,      2.33800,      2.33900,      2.34000,
      2.34100,      2.34200,      2.34300,      2.34400,      2.34500,
      2.34600,      2.34700,      2.34800,      2.34900,      2.35000,
      2.35100,      2.35200,      2.35300,      2.35400,      2.35500,
      2.35600,      2.35700,      2.35800,      2.35900,      2.36000,
      2.36100,      2.36200,      2.36300,      2.36400,      2.36500,
      2.36600,      2.36700,      2.36800,      2.36900,      2.37000,
      2.37100,      2.37200,      2.37300,      2.37400,      2.37500,
      2.37600,      2.37700,      2.37800,      2.37900,      2.38000,
      2.38100,      2.38200,      2.38300,      2.38400,      2.38500,
      2.38600,      2.38700,      2.38800,      2.38900,      2.39000,
      2.39100,      2.39200,      2.39300,      2.39400,      2.39500,
      2.39600,      2.39700,      2.39800,      2.39900,      2.40000,
      2.40100,      2.40200,      2.40300,      2.40400,      2.40500,
      2.40600,      2.40700,      2.40800,      2.40900,      2.41000,
      2.41100,      2.41200,      2.41300,      2.41400,      2.41500,
      2.41600,      2.41700,      2.41800,      2.41900,      2.42000,
      2.42100,      2.42200,      2.42300,      2.42400,      2.42500,
      2.42600,      2.42700,      2.42800,      2.42900,      2.43000,
      2.43100,      2.43200,      2.43300,      2.43400,      2.43500,
      2.43600,      2.43700,      2.43800,      2.43900,      2.44000,
      2.44100,      2.44200,      2.44300,      2.44400,      2.44500,
      2.44600,      2.44700,      2.44800,      2.44900,      2.45000,
      2.45100,      2.45200,      2.45300,      2.45400,      2.45500,
      2.45600,      2.45700,      2.45800,      2.45900,      2.46000,
      2.46100,      2.46200,      2.46300,      2.46400,      2.46500,
      2.46600,      2.46700,      2.46800,      2.46900,      2.47000,
      2.47100,      2.47200,      2.47300,      2.47400,      2.47500,
      2.47600,      2.47700,      2.47800,      2.47900,      2.48000,
      2.48100,      2.48200,      2.48300,      2.48400,      2.48500,
      2.48600,      2.48700,      2.48800,      2.48900,      2.49000,
      2.49100,      2.49200,      2.49300,      2.49400,      2.49500,
      2.49600,      2.49700,      2.49800,      2.49900,      2.50000,
      2.50100,      2.50200,      2.50300,      2.50400,      2.50500,
      2.50600,      2.50700,      2.50800,      2.50900,      2.51000,
      2.51100,      2.51200,      2.51300,      2.51400,      2.51500,
      2.51600,      2.51700,      2.51800,      2.51900,      2.52000,
      2.52100,      2.52200,      2.52300,      2.52400,      2.52500,
      2.52600,      2.52700,      2.52800,      2.52900,      2.53000,
      2.53100,      2.53200,      2.53300,      2.53400,      2.53500,
      2.53600,      2.53700,      2.53800,      2.53900,      2.54000,
      2.54100,      2.54200,      2.54300,      2.54400,      2.54500,
      2.54600,      2.54700,      2.54800,      2.54900,      2.55000,
      2.55100,      2.55200,      2.55300,      2.55400,      2.55500,
      2.55600,      2.55700,      2.55800,      2.55900,      2.56000,
      2.56100,      2.56200,      2.56300,      2.56400,      2.56500,
      2.56600,      2.56700,      2.56800,      2.56900,      2.57000,
      2.57100,      2.57200,      2.57300,      2.57400,      2.57500,
      2.57600,      2.57700,      2.57800,      2.57900,      2.58000,
      2.58100,      2.58200,      2.58300,      2.58400,      2.58500,
      2.58600,      2.58700,      2.58800,      2.58900,      2.59000,
      2.59100,      2.59200,      2.59300,      2.59400,      2.59500,
      2.59600,      2.59700,      2.59800,      2.59900,      2.60000,
      2.60100,      2.60200,      2.60300,      2.60400,      2.60500,
      2.60600,      2.60700,      2.60800,      2.60900,      2.61000,
      2.61100,      2.61200,      2.61300,      2.61400,      2.61500,
      2.61600,      2.61700,      2.61800,      2.61900,      2.62000,
      2.62100,      2.62200,      2.62300,      2.62400,      2.62500,
      2.62600,      2.62700,      2.62800,      2.62900,      2.63000,
      2.63100,      2.63200,      2.63300,      2.63400,      2.63500,
      2.63600,      2.63700,      2.63800,      2.63900,      2.64000,
      2.64100,      2.64200,      2.64300,      2.64400,      2.64500,
      2.64600,      2.64700,      2.64800,      2.64900,      2.65000,
      2.65100,      2.65200,      2.65300,      2.65400,      2.65500,
      2.65600,      2.65700,      2.65800,      2.65900,      2.66000,
      2.66100,      2.66200,      2.66300,      2.66400,      2.66500,
      2.66600,      2.66700,      2.66800,      2.66900,      2.67000,
      2.67100,      2.67200,      2.67300,      2.67400,      2.67500,
      2.67600,      2.67700,      2.67800,      2.67900,      2.68000,
      2.68100,      2.68200,      2.68300,      2.68400,      2.68500,
      2.68600,      2.68700,      2.68800,      2.68900,      2.69000,
      2.69100,      2.69200,      2.69300,      2.69400,      2.69500,
      2.69600,      2.69700,      2.69800,      2.69900,      2.70000,
      2.70100,      2.70200,      2.70300,      2.70400,      2.70500,
      2.70600,      2.70700,      2.70800,      2.70900,      2.71000,
      2.71100,      2.71200,      2.71300,      2.71400,      2.71500,
      2.71600,      2.71700,      2.71800,      2.71900,      2.72000,
      2.72100,      2.72200,      2.72300,      2.72400,      2.72500,
      2.72600,      2.72700,      2.72800,      2.72900,      2.73000,
      2.73100,      2.73200,      2.73300,      2.73400,      2.73500,
      2.73600,      2.73700,      2.73800,      2.73900,      2.74000,
      2.74100,      2.74200,      2.74300,      2.74400,      2.74500,
      2.74600,      2.74700,      2.74800,      2.74900,      2.75000,
      2.75100,      2.75200,      2.75300,      2.75400,      2.75500,
      2.75600,      2.75700,      2.75800,      2.75900,      2.76000,
      2.76100,      2.76200,      2.76300,      2.76400,      2.76500,
      2.76600,      2.76700,      2.76800,      2.76900,      2.77000,
      2.77100,      2.77200,      2.77300,      2.77400,      2.77500,
      2.77600,      2.77700,      2.77800,      2.77900,      2.78000,
      2.78100,      2.78200,      2.78300,      2.78400,      2.78500,
      2.78600,      2.78700,      2.78800,      2.78900,      2.79000,
      2.79100,      2.79200,      2.79300,      2.79400,      2.79500,
      2.79600,      2.79700,      2.79800,      2.79900,      2.80000,
      2.80100,      2.80200,      2.80300,      2.80400,      2.80500,
      2.80600,      2.80700,      2.80800,      2.80900,      2.81000,
      2.81100,      2.81200,      2.81300,      2.81400,      2.81500,
      2.81600,      2.81700,      2.81800,      2.81900,      2.82000,
      2.82100,      2.82200,      2.82300,      2.82400,      2.82500,
      2.82600,      2.82700,      2.82800,      2.82900,      2.83000,
      2.83100,      2.83200,      2.83300,      2.83400,      2.83500,
      2.83600,      2.83700,      2.83800,      2.83900,      2.84000,
      2.84100,      2.84200,      2.84300,      2.84400,      2.84500,
      2.84600,      2.84700,      2.84800,      2.84900,      2.85000,
      2.85100,      2.85200,      2.85300,      2.85400,      2.85500,
      2.85600,      2.85700,      2.85800,      2.85900,      2.86000,
      2.86100,      2.86200,      2.86300,      2.86400,      2.86500,
      2.86600,      2.86700,      2.86800,      2.86900,      2.87000,
      2.87100,      2.87200,      2.87300,      2.87400,      2.87500,
      2.87600,      2.87700,      2.87800,      2.87900,      2.88000,
      2.88100,      2.88200,      2.88300,      2.88400,      2.88500,
      2.88600,      2.88700,      2.88800,      2.88900,      2.89000,
      2.89100,      2.89200,      2.89300,      2.89400,      2.89500,
      2.89600,      2.89700,      2.89800,      2.89900,      2.90000,
      2.90100,      2.90200,      2.90300,      2.90400,      2.90500,
      2.90600,      2.90700,      2.90800,      2.90900,      2.91000,
      2.91100,      2.91200,      2.91300,      2.91400,      2.91500,
      2.91600,      2.91700,      2.91800,      2.91900,      2.92000,
      2.92100,      2.92200,      2.92300,      2.92400,      2.92500,
      2.92600,      2.92700,      2.92800,      2.92900,      2.93000,
      2.93100,      2.93200,      2.93300,      2.93400,      2.93500,
      2.93600,      2.93700,      2.93800,      2.93900,      2.94000,
      2.94100,      2.94200,      2.94300,      2.94400,      2.94500,
      2.94600,      2.94700,      2.94800,      2.94900,      2.95000,
      2.95100,      2.95200,      2.95300,      2.95400,      2.95500,
      2.95600,      2.95700,      2.95800,      2.95900,      2.96000,
      2.96100,      2.96200,      2.96300,      2.96400,      2.96500,
      2.96600,      2.96700,      2.96800,      2.96900,      2.97000,
      2.97100,      2.97200,      2.97300,      2.97400,      2.97500,
      2.97600,      2.97700,      2.97800,      2.97900,      2.98000,
      2.98100,      2.98200,      2.98300,      2.98400,      2.98500,
      2.98600,      2.98700,      2.98800,      2.98900,      2.99000,
      2.99100,      2.99200,      2.99300,      2.99400,      2.99500,
      2.99600,      2.99700,      2.99800,      2.99900,      3.00000,
      3.00100,      3.00200,      3.00300,      3.00400,      3.00500,
      3.00600,      3.00700,      3.00800,      3.00900,      3.01000,
      3.01100,      3.01200,      3.01300,      3.01400,      3.01500,
      3.01600,      3.01700,      3.01800,      3.01900,      3.02000,
      3.02100,      3.02200,      3.02300,      3.02400,      3.02500,
      3.02600,      3.02700,      3.02800,      3.02900,      3.03000,
      3.03100,      3.03200,      3.03300,      3.03400,      3.03500,
      3.03600,      3.03700,      3.03800,      3.03900,      3.04000,
      3.04100,      3.04200,      3.04300,      3.04400,      3.04500,
      3.04600,      3.04700,      3.04800,      3.04900,      3.05000,
      3.05100,      3.05200,      3.05300,      3.05400,      3.05500,
      3.05600,      3.05700,      3.05800,      3.05900,      3.06000,
      3.06100,      3.06200,      3.06300,      3.06400,      3.06500,
      3.06600,      3.06700,      3.06800,      3.06900,      3.07000,
      3.07100,      3.07200,      3.07300,      3.07400,      3.07500,
      3.07600,      3.07700,      3.07800,      3.07900,      3.08000,
      3.08100,      3.08200,      3.08300,      3.08400,      3.08500,
      3.08600,      3.08700,      3.08800,      3.08900,      3.09000,
      3.09100,      3.09200,      3.09300,      3.09400,      3.09500,
      3.09600,      3.09700,      3.09800,      3.09900,      3.10000,
      3.10100,      3.10200,      3.10300,      3.10400,      3.10500,
      3.10600,      3.10700,      3.10800,      3.10900,      3.11000,
      3.11100,      3.11200,      3.11300,      3.11400,      3.11500,
      3.11600,      3.11700,      3.11800,      3.11900,      3.12000,
      3.12100,      3.12200,      3.12300,      3.12400,      3.12500,
      3.12600,      3.12700,      3.12800,      3.12900,      3.13000,
      3.13100,      3.13200,      3.13300,      3.13400,      3.13500,
      3.13600,      3.13700,      3.13800,      3.13900,      3.14000,
      3.14100,      3.14200,      3.14300,      3.14400,      3.14500,
      3.14600,      3.14700,      3.14800,      3.14900,      3.15000,
      3.15100,      3.15200,      3.15300,      3.15400,      3.15500,
      3.15600,      3.15700,      3.15800,      3.15900,      3.16000,
      3.16100,      3.16200,      3.16300,      3.16400,      3.16500,
      3.16600,      3.16700,      3.16800,      3.16900,      3.17000,
      3.17100,      3.17200,      3.17300,      3.17400,      3.17500,
      3.17600,      3.17700,      3.17800,      3.17900,      3.18000,
      3.18100,      3.18200,      3.18300,      3.18400,      3.18500,
      3.18600,      3.18700,      3.18800,      3.18900,      3.19000,
      3.19100,      3.19200,      3.19300,      3.19400,      3.19500,
      3.19600,      3.19700,      3.19800,      3.19900,      3.20000,
      3.20100,      3.20200,      3.20300,      3.20400,      3.20500,
      3.20600,      3.20700,      3.20800,      3.20900,      3.21000,
      3.21100,      3.21200,      3.21300,      3.21400,      3.21500,
      3.21600,      3.21700,      3.21800,      3.21900,      3.22000,
      3.22100,      3.22200,      3.22300,      3.22400,      3.22500,
      3.22600,      3.22700,      3.22800,      3.22900,      3.23000,
      3.23100,      3.23200,      3.23300,      3.23400,      3.23500,
      3.23600,      3.23700,      3.23800,      3.23900,      3.24000,
      3.24100,      3.24200,      3.24300,      3.24400,      3.24500,
      3.24600,      3.24700,      3.24800,      3.24900,      3.25000,
      3.25100,      3.25200,      3.25300,      3.25400,      3.25500,
      3.25600,      3.25700,      3.25800,      3.25900,      3.26000,
      3.26100,      3.26200,      3.26300,      3.26400,      3.26500,
      3.26600,      3.26700,      3.26800,      3.26900,      3.27000,
      3.27100,      3.27200,      3.27300,      3.27400,      3.27500,
      3.27600,      3.27700,      3.27800,      3.27900,      3.28000,
      3.28100,      3.28200,      3.28300,      3.28400,      3.28500,
      3.28600,      3.28700,      3.28800,      3.28900,      3.29000,
      3.29100,      3.29200,      3.29300,      3.29400,      3.29500,
      3.29600,      3.29700,      3.29800,      3.29900,      3.30000,
      3.30100,      3.30200,      3.30300,      3.30400,      3.30500,
      3.30600,      3.30700,      3.30800,      3.30900,      3.31000,
      3.31100,      3.31200,      3.31300,      3.31400,      3.31500,
      3.31600,      3.31700,      3.31800,      3.31900,      3.32000,
      3.32100,      3.32200,      3.32300,      3.32400,      3.32500,
      3.32600,      3.32700,      3.32800,      3.32900,      3.33000,
      3.33100,      3.33200,      3.33300,      3.33400,      3.33500,
      3.33600,      3.33700,      3.33800,      3.33900,      3.34000,
      3.34100,      3.34200,      3.34300,      3.34400,      3.34500,
      3.34600,      3.34700,      3.34800,      3.34900,      3.35000,
      3.35100,      3.35200,      3.35300,      3.35400,      3.35500,
      3.35600,      3.35700,      3.35800,      3.35900,      3.36000,
      3.36100,      3.36200,      3.36300,      3.36400,      3.36500,
      3.36600,      3.36700,      3.36800,      3.36900,      3.37000,
      3.37100,      3.37200,      3.37300,      3.37400,      3.37500,
      3.37600,      3.37700,      3.37800,      3.37900,      3.38000,
      3.38100,      3.38200,      3.38300,      3.38400,      3.38500,
      3.38600,      3.38700,      3.38800,      3.38900,      3.39000,
      3.39100,      3.39200,      3.39300,      3.39400,      3.39500,
      3.39600,      3.39700,      3.39800,      3.39900,      3.40000,
      3.40100,      3.40200,      3.40300,      3.40400,      3.40500,
      3.40600,      3.40700,      3.40800,      3.40900,      3.41000,
      3.41100,      3.41200,      3.41300,      3.41400,      3.41500,
      3.41600,      3.41700,      3.41800,      3.41900,      3.42000,
      3.42100,      3.42200,      3.42300,      3.42400,      3.42500,
      3.42600,      3.42700,      3.42800,      3.42900,      3.43000,
      3.43100,      3.43200,      3.43300,      3.43400,      3.43500,
      3.43600,      3.43700,      3.43800,      3.43900,      3.44000,
      3.44100,      3.44200,      3.44300,      3.44400,      3.44500,
      3.44600,      3.44700,      3.44800,      3.44900,      3.45000,
      3.45100,      3.45200,      3.45300,      3.45400,      3.45500,
      3.45600,      3.45700,      3.45800,      3.45900,      3.46000,
      3.46100,      3.46200,      3.46300,      3.46400,      3.46500,
      3.46600,      3.46700,      3.46800,      3.46900,      3.47000,
      3.47100,      3.47200,      3.47300,      3.47400,      3.47500,
      3.47600,      3.47700,      3.47800,      3.47900,      3.48000,
      3.48100,      3.48200,      3.48300,      3.48400,      3.48500,
      3.48600,      3.48700,      3.48800,      3.48900,      3.49000,
      3.49100,      3.49200,      3.49300,      3.49400,      3.49500,
      3.49600,      3.49700,      3.49800,      3.49900,      3.50000,
      3.50100,      3.50200,      3.50300,      3.50400,      3.50500,
      3.50600,      3.50700,      3.50800,      3.50900,      3.51000,
      3.51100,      3.51200,      3.51300,      3.51400,      3.51500,
      3.51600,      3.51700,      3.51800,      3.51900,      3.52000,
      3.52100,      3.52200,      3.52300,      3.52400,      3.52500,
      3.52600,      3.52700,      3.52800,      3.52900,      3.53000,
      3.53100,      3.53200,      3.53300,      3.53400,      3.53500,
      3.53600,      3.53700,      3.53800,      3.53900,      3.54000,
      3.54100,      3.54200,      3.54300,      3.54400,      3.54500,
      3.54600,      3.54700,      3.54800,      3.54900,      3.55000,
      3.55100,      3.55200,      3.55300,      3.55400,      3.55500,
      3.55600,      3.55700,      3.55800,      3.55900,      3.56000,
      3.56100,      3.56200,      3.56300,      3.56400,      3.56500,
      3.56600,      3.56700,      3.56800,      3.56900,      3.57000,
      3.57100,      3.57200,      3.57300,      3.57400,      3.57500,
      3.57600,      3.57700,      3.57800,      3.57900,      3.58000,
      3.58100,      3.58200,      3.58300,      3.58400,      3.58500,
      3.58600,      3.58700,      3.58800,      3.58900,      3.59000,
      3.59100,      3.59200,      3.59300,      3.59400,      3.59500,
      3.59600,      3.59700,      3.59800,      3.59900,      3.60000,
      3.60100,      3.60200,      3.60300,      3.60400,      3.60500,
      3.60600,      3.60700,      3.60800,      3.60900,      3.61000,
      3.61100,      3.61200,      3.61300,      3.61400,      3.61500,
      3.61600,      3.61700,      3.61800,      3.61900,      3.62000,
      3.62100,      3.62200,      3.62300,      3.62400,      3.62500,
      3.62600,      3.62700,      3.62800,      3.62900,      3.63000,
      3.63100,      3.63200,      3.63300,      3.63400,      3.63500,
      3.63600,      3.63700,      3.63800,      3.63900,      3.64000,
      3.64100,      3.64200,      3.64300,      3.64400,      3.64500,
      3.64600,      3.64700,      3.64800,      3.64900,      3.65000,
      3.65100,      3.65200,      3.65300,      3.65400,      3.65500,
      3.65600,      3.65700,      3.65800,      3.65900,      3.66000,
      3.66100,      3.66200,      3.66300,      3.66400,      3.66500,
      3.66600,      3.66700,      3.66800,      3.66900,      3.67000,
      3.67100,      3.67200,      3.67300,      3.67400,      3.67500,
      3.67600,      3.67700,      3.67800,      3.67900,      3.68000,
      3.68100,      3.68200,      3.68300,      3.68400,      3.68500,
      3.68600,      3.68700,      3.68800,      3.68900,      3.69000,
      3.69100,      3.69200,      3.69300,      3.69400,      3.69500,
      3.69600,      3.69700,      3.69800,      3.69900,      3.70000,
      3.70100,      3.70200,      3.70300,      3.70400,      3.70500,
      3.70600,      3.70700,      3.70800,      3.70900,      3.71000,
      3.71100,      3.71200,      3.71300,      3.71400,      3.71500,
      3.71600,      3.71700,      3.71800,      3.71900,      3.72000,
      3.72100,      3.72200,      3.72300,      3.72400,      3.72500,
      3.72600,      3.72700,      3.72800,      3.72900,      3.73000,
      3.73100,      3.73200,      3.73300,      3.73400,      3.73500,
      3.73600,      3.73700,      3.73800,      3.73900,      3.74000,
      3.74100,      3.74200,      3.74300,      3.74400,      3.74500,
      3.74600,      3.74700,      3.74800,      3.74900,      3.75000,
      3.75100,      3.75200,      3.75300,      3.75400,      3.75500,
      3.75600,      3.75700,      3.75800,      3.75900,      3.76000,
      3.76100,      3.76200,      3.76300,      3.76400,      3.76500,
      3.76600,      3.76700,      3.76800,      3.76900,      3.77000,
      3.77100,      3.77200,      3.77300,      3.77400,      3.77500,
      3.77600,      3.77700,      3.77800,      3.77900,      3.78000,
      3.78100,      3.78200,      3.78300,      3.78400,      3.78500,
      3.78600,      3.78700,      3.78800,      3.78900,      3.79000,
      3.79100,      3.79200,      3.79300,      3.79400,      3.79500,
      3.79600,      3.79700,      3.79800,      3.79900,      3.80000,
      3.80100,      3.80200,      3.80300,      3.80400,      3.80500,
      3.80600,      3.80700,      3.80800,      3.80900,      3.81000,
      3.81100,      3.81200,      3.81300,      3.81400,      3.81500,
      3.81600,      3.81700,      3.81800,      3.81900,      3.82000,
      3.82100,      3.82200,      3.82300,      3.82400,      3.82500,
      3.82600,      3.82700,      3.82800,      3.82900,      3.83000,
      3.83100,      3.83200,      3.83300,      3.83400,      3.83500,
      3.83600,      3.83700,      3.83800,      3.83900,      3.84000,
      3.84100,      3.84200,      3.84300,      3.84400,      3.84500,
      3.84600,      3.84700,      3.84800,      3.84900,      3.85000,
      3.85100,      3.85200,      3.85300,      3.85400,      3.85500,
      3.85600,      3.85700,      3.85800,      3.85900,      3.86000,
      3.86100,      3.86200,      3.86300,      3.86400,      3.86500,
      3.86600,      3.86700,      3.86800,      3.86900,      3.87000,
      3.87100,      3.87200,      3.87300,      3.87400,      3.87500,
      3.87600,      3.87700,      3.87800,      3.87900,      3.88000,
      3.88100,      3.88200,      3.88300,      3.88400,      3.88500,
      3.88600,      3.88700,      3.88800,      3.88900,      3.89000,
      3.89100,      3.89200,      3.89300,      3.89400,      3.89500,
      3.89600,      3.89700,      3.89800,      3.89900,      3.90000,
      3.90100,      3.90200,      3.90300,      3.90400,      3.90500,
      3.90600,      3.90700,      3.90800,      3.90900,      3.91000,
      3.91100,      3.91200,      3.91300,      3.91400,      3.91500,
      3.91600,      3.91700,      3.91800,      3.91900,      3.92000,
      3.92100,      3.92200,      3.92300,      3.92400,      3.92500,
      3.92600,      3.92700,      3.92800,      3.92900,      3.93000,
      3.93100,      3.93200,      3.93300,      3.93400,      3.93500,
      3.93600,      3.93700,      3.93800,      3.93900,      3.94000,
      3.94100,      3.94200,      3.94300,      3.94400,      3.94500,
      3.94600,      3.94700,      3.94800,      3.94900,      3.95000,
      3.95100,      3.95200,      3.95300,      3.95400,      3.95500,
      3.95600,      3.95700,      3.95800,      3.95900,      3.96000,
      3.96100,      3.96200,      3.96300,      3.96400,      3.96500,
      3.96600,      3.96700,      3.96800,      3.96900,      3.97000,
      3.97100,      3.97200,      3.97300,      3.97400,      3.97500,
      3.97600,      3.97700,      3.97800,      3.97900,      3.98000,
      3.98100,      3.98200,      3.98300,      3.98400,      3.98500,
      3.98600,      3.98700,      3.98800,      3.98900,      3.99000,
      3.99100,      3.99200,      3.99300,      3.99400,      3.99500,
      3.99600,      3.99700,      3.99800,      3.99900,      4.00000,
      4.00100,      4.00200,      4.00300,      4.00400,      4.00500,
      4.00600,      4.00700,      4.00800,      4.00900,      4.01000,
      4.01100,      4.01200,      4.01300,      4.01400,      4.01500,
      4.01600,      4.01700,      4.01800,      4.01900,      4.02000,
      4.02100,      4.02200,      4.02300,      4.02400,      4.02500,
      4.02600,      4.02700,      4.02800,      4.02900,      4.03000,
      4.03100,      4.03200,      4.03300,      4.03400,      4.03500,
      4.03600,      4.03700,      4.03800,      4.03900,      4.04000,
      4.04100,      4.04200,      4.04300,      4.04400,      4.04500,
      4.04600,      4.04700,      4.04800,      4.04900,      4.05000,
      4.05100,      4.05200,      4.05300,      4.05400,      4.05500,
      4.05600,      4.05700,      4.05800,      4.05900,      4.06000,
      4.06100,      4.06200,      4.06300,      4.06400,      4.06500,
      4.06600,      4.06700,      4.06800,      4.06900,      4.07000,
      4.07100,      4.07200,      4.07300,      4.07400,      4.07500,
      4.07600,      4.07700,      4.07800,      4.07900,      4.08000,
      4.08100,      4.08200,      4.08300,      4.08400,      4.08500,
      4.08600,      4.08700,      4.08800,      4.08900,      4.09000,
      4.09100,      4.09200,      4.09300,      4.09400,      4.09500,
      4.09600,      4.09700,      4.09800,      4.09900,      4.10000,
      4.10100,      4.10200,      4.10300,      4.10400,      4.10500,
      4.10600,      4.10700,      4.10800,      4.10900,      4.11000,
      4.11100,      4.11200,      4.11300,      4.11400,      4.11500,
      4.11600,      4.11700,      4.11800,      4.11900,      4.12000,
      4.12100,      4.12200,      4.12300,      4.12400,      4.12500,
      4.12600,      4.12700,      4.12800,      4.12900,      4.13000,
      4.13100,      4.13200,      4.13300,      4.13400,      4.13500,
      4.13600,      4.13700,      4.13800,      4.13900,      4.14000,
      4.14100,      4.14200,      4.14300,      4.14400,      4.14500,
      4.14600,      4.14700,      4.14800,      4.14900,      4.15000,
      4.15100,      4.15200,      4.15300,      4.15400,      4.15500,
      4.15600,      4.15700,      4.15800,      4.15900,      4.16000,
      4.16100,      4.16200,      4.16300,      4.16400,      4.16500,
      4.16600,      4.16700,      4.16800,      4.16900,      4.17000,
      4.17100,      4.17200,      4.17300,      4.17400,      4.17500,
      4.17600,      4.17700,      4.17800,      4.17900,      4.18000,
      4.18100,      4.18200,      4.18300,      4.18400,      4.18500,
      4.18600,      4.18700,      4.18800,      4.18900,      4.19000,
      4.19100,      4.19200,      4.19300,      4.19400,      4.19500,
      4.19600,      4.19700,      4.19800,      4.19900,      4.20000,
      4.20100,      4.20200,      4.20300,      4.20400,      4.20500,
      4.20600,      4.20700,      4.20800,      4.20900,      4.21000,
      4.21100,      4.21200,      4.21300,      4.21400,      4.21500,
      4.21600,      4.21700,      4.21800,      4.21900,      4.22000,
      4.22100,      4.22200,      4.22300,      4.22400,      4.22500,
      4.22600,      4.22700,      4.22800,      4.22900,      4.23000,
      4.23100,      4.23200,      4.23300,      4.23400,      4.23500,
      4.23600,      4.23700,      4.23800,      4.23900,      4.24000,
      4.24100,      4.24200,      4.24300,      4.24400,      4.24500,
      4.24600,      4.24700,      4.24800,      4.24900,      4.25000,
      4.25100,      4.25200,      4.25300,      4.25400,      4.25500,
      4.25600,      4.25700,      4.25800,      4.25900,      4.26000,
      4.26100,      4.26200,      4.26300,      4.26400,      4.26500,
      4.26600,      4.26700,      4.26800,      4.26900,      4.27000,
      4.27100,      4.27200,      4.27300,      4.27400,      4.27500,
      4.27600,      4.27700,      4.27800,      4.27900,      4.28000,
      4.28100,      4.28200,      4.28300,      4.28400,      4.28500,
      4.28600,      4.28700,      4.28800,      4.28900,      4.29000,
      4.29100,      4.29200,      4.29300,      4.29400,      4.29500,
      4.29600,      4.29700,      4.29800,      4.29900,      4.30000,
      4.30100,      4.30200,      4.30300,      4.30400,      4.30500,
      4.30600,      4.30700,      4.30800,      4.30900,      4.31000,
      4.31100,      4.31200,      4.31300,      4.31400,      4.31500,
      4.31600,      4.31700,      4.31800,      4.31900,      4.32000,
      4.32100,      4.32200,      4.32300,      4.32400,      4.32500,
      4.32600,      4.32700,      4.32800,      4.32900,      4.33000,
      4.33100,      4.33200,      4.33300,      4.33400,      4.33500,
      4.33600,      4.33700,      4.33800,      4.33900,      4.34000,
      4.34100,      4.34200,      4.34300,      4.34400,      4.34500,
      4.34600,      4.34700,      4.34800,      4.34900,      4.35000,
      4.35100,      4.35200,      4.35300,      4.35400,      4.35500,
      4.35600,      4.35700,      4.35800,      4.35900,      4.36000,
      4.36100,      4.36200,      4.36300,      4.36400,      4.36500,
      4.36600,      4.36700,      4.36800,      4.36900,      4.37000,
      4.37100,      4.37200,      4.37300,      4.37400,      4.37500,
      4.37600,      4.37700,      4.37800,      4.37900,      4.38000,
      4.38100,      4.38200,      4.38300,      4.38400,      4.38500,
      4.38600,      4.38700,      4.38800,      4.38900,      4.39000,
      4.39100,      4.39200,      4.39300,      4.39400,      4.39500,
      4.39600,      4.39700,      4.39800,      4.39900,      4.40000,
      4.40100,      4.40200,      4.40300,      4.40400,      4.40500,
      4.40600,      4.40700,      4.40800,      4.40900,      4.41000,
      4.41100,      4.41200,      4.41300,      4.41400,      4.41500,
      4.41600,      4.41700,      4.41800,      4.41900,      4.42000,
      4.42100,      4.42200,      4.42300,      4.42400,      4.42500,
      4.42600,      4.42700,      4.42800,      4.42900,      4.43000,
      4.43100,      4.43200,      4.43300,      4.43400,      4.43500,
      4.43600,      4.43700,      4.43800,      4.43900,      4.44000,
      4.44100,      4.44200,      4.44300,      4.44400,      4.44500,
      4.44600,      4.44700,      4.44800,      4.44900,      4.45000,
      4.45100,      4.45200,      4.45300,      4.45400,      4.45500,
      4.45600,      4.45700,      4.45800,      4.45900,      4.46000,
      4.46100,      4.46200,      4.46300,      4.46400,      4.46500,
      4.46600,      4.46700,      4.46800,      4.46900,      4.47000,
      4.47100,      4.47200,      4.47300,      4.47400,      4.47500,
      4.47600,      4.47700,      4.47800,      4.47900,      4.48000,
      4.48100,      4.48200,      4.48300,      4.48400,      4.48500,
      4.48600,      4.48700,      4.48800,      4.48900,      4.49000,
      4.49100,      4.49200,      4.49300,      4.49400,      4.49500,
      4.49600,      4.49700,      4.49800,      4.49900,      4.50000,
      4.50100,      4.50200,      4.50300,      4.50400,      4.50500,
      4.50600,      4.50700,      4.50800,      4.50900,      4.51000,
      4.51100,      4.51200,      4.51300,      4.51400,      4.51500,
      4.51600,      4.51700,      4.51800,      4.51900,      4.52000,
      4.52100,      4.52200,      4.52300,      4.52400,      4.52500,
      4.52600,      4.52700,      4.52800,      4.52900,      4.53000,
      4.53100,      4.53200,      4.53300,      4.53400,      4.53500,
      4.53600,      4.53700,      4.53800,      4.53900,      4.54000,
      4.54100,      4.54200,      4.54300,      4.54400,      4.54500,
      4.54600,      4.54700,      4.54800,      4.54900,      4.55000,
      4.55100,      4.55200,      4.55300,      4.55400,      4.55500,
      4.55600,      4.55700,      4.55800,      4.55900,      4.56000,
      4.56100,      4.56200,      4.56300,      4.56400,      4.56500,
      4.56600,      4.56700,      4.56800,      4.56900,      4.57000,
      4.57100,      4.57200,      4.57300,      4.57400,      4.57500,
      4.57600,      4.57700,      4.57800,      4.57900,      4.58000,
      4.58100,      4.58200,      4.58300,      4.58400,      4.58500,
      4.58600,      4.58700,      4.58800,      4.58900,      4.59000,
      4.59100,      4.59200,      4.59300,      4.59400,      4.59500,
      4.59600,      4.59700,      4.59800,      4.59900,      4.60000,
      4.60100,      4.60200,      4.60300,      4.60400,      4.60500,
      4.60600,      4.60700,      4.60800,      4.60900,      4.61000,
      4.61100,      4.61200,      4.61300,      4.61400,      4.61500,
      4.61600,      4.61700,      4.61800,      4.61900,      4.62000,
      4.62100,      4.62200,      4.62300,      4.62400,      4.62500,
      4.62600,      4.62700,      4.62800,      4.62900,      4.63000,
      4.63100,      4.63200,      4.63300,      4.63400,      4.63500,
      4.63600,      4.63700,      4.63800,      4.63900,      4.64000,
      4.64100,      4.64200,      4.64300,      4.64400,      4.64500,
      4.64600,      4.64700,      4.64800,      4.64900,      4.65000,
      4.65100,      4.65200,      4.65300,      4.65400,      4.65500,
      4.65600,      4.65700,      4.65800,      4.65900,      4.66000,
      4.66100,      4.66200,      4.66300,      4.66400,      4.66500,
      4.66600,      4.66700,      4.66800,      4.66900,      4.67000,
      4.67100,      4.67200,      4.67300,      4.67400,      4.67500,
      4.67600,      4.67700,      4.67800,      4.67900,      4.68000,
      4.68100,      4.68200,      4.68300,      4.68400,      4.68500,
      4.68600,      4.68700,      4.68800,      4.68900,      4.69000,
      4.69100,      4.69200,      4.69300,      4.69400,      4.69500,
      4.69600,      4.69700,      4.69800,      4.69900,      4.70000,
      4.70100,      4.70200,      4.70300,      4.70400,      4.70500,
      4.70600,      4.70700,      4.70800,      4.70900,      4.71000,
      4.71100,      4.71200,      4.71300,      4.71400,      4.71500,
      4.71600,      4.71700,      4.71800,      4.71900,      4.72000,
      4.72100,      4.72200,      4.72300,      4.72400,      4.72500,
      4.72600,      4.72700,      4.72800,      4.72900,      4.73000,
      4.73100,      4.73200,      4.73300,      4.73400,      4.73500,
      4.73600,      4.73700,      4.73800,      4.73900,      4.74000,
      4.74100,      4.74200,      4.74300,      4.74400,      4.74500,
      4.74600,      4.74700,      4.74800,      4.74900,      4.75000,
      4.75100,      4.75200,      4.75300,      4.75400,      4.75500,
      4.75600,      4.75700,      4.75800,      4.75900,      4.76000,
      4.76100,      4.76200,      4.76300,      4.76400,      4.76500,
      4.76600,      4.76700,      4.76800,      4.76900,      4.77000,
      4.77100,      4.77200,      4.77300,      4.77400,      4.77500,
      4.77600,      4.77700,      4.77800,      4.77900,      4.78000,
      4.78100,      4.78200,      4.78300,      4.78400,      4.78500,
      4.78600,      4.78700,      4.78800,      4.78900,      4.79000,
      4.79100,      4.79200,      4.79300,      4.79400,      4.79500,
      4.79600,      4.79700,      4.79800,      4.79900,      4.80000,
      4.80100,      4.80200,      4.80300,      4.80400,      4.80500,
      4.80600,      4.80700,      4.80800,      4.80900,      4.81000,
      4.81100,      4.81200,      4.81300,      4.81400,      4.81500,
      4.81600,      4.81700,      4.81800,      4.81900,      4.82000,
      4.82100,      4.82200,      4.82300,      4.82400,      4.82500,
      4.82600,      4.82700,      4.82800,      4.82900,      4.83000,
      4.83100,      4.83200,      4.83300,      4.83400,      4.83500,
      4.83600,      4.83700,      4.83800,      4.83900,      4.84000,
      4.84100,      4.84200,      4.84300,      4.84400,      4.84500,
      4.84600,      4.84700,      4.84800,      4.84900,      4.85000,
      4.85100,      4.85200,      4.85300,      4.85400,      4.85500,
      4.85600,      4.85700,      4.85800,      4.85900,      4.86000,
      4.86100,      4.86200,      4.86300,      4.86400,      4.86500,
      4.86600,      4.86700,      4.86800,      4.86900,      4.87000,
      4.87100,      4.87200,      4.87300,      4.87400,      4.87500,
      4.87600,      4.87700,      4.87800,      4.87900,      4.88000,
      4.88100,      4.88200,      4.88300,      4.88400,      4.88500,
      4.88600,      4.88700,      4.88800,      4.88900,      4.89000,
      4.89100,      4.89200,      4.89300,      4.89400,      4.89500,
      4.89600,      4.89700,      4.89800,      4.89900,      4.90000,
      4.90100,      4.90200,      4.90300,      4.90400,      4.90500,
      4.90600,      4.90700,      4.90800,      4.90900,      4.91000,
      4.91100,      4.91200,      4.91300,      4.91400,      4.91500,
      4.91600,      4.91700,      4.91800,      4.91900,      4.92000,
      4.92100,      4.92200,      4.92300,      4.92400,      4.92500,
      4.92600,      4.92700,      4.92800,      4.92900,      4.93000,
      4.93100,      4.93200,      4.93300,      4.93400,      4.93500,
      4.93600,      4.93700,      4.93800,      4.93900,      4.94000,
      4.94100,      4.94200,      4.94300,      4.94400,      4.94500,
      4.94600,      4.94700,      4.94800,      4.94900,      4.95000,
      4.95100,      4.95200,      4.95300,      4.95400,      4.95500,
      4.95600,      4.95700,      4.95800,      4.95900,      4.96000,
      4.96100,      4.96200,      4.96300,      4.96400,      4.96500,
      4.96600,      4.96700,      4.96800,      4.96900,      4.97000,
      4.97100,      4.97200,      4.97300,      4.97400,      4.97500,
      4.97600,      4.97700,      4.97800,      4.97900,      4.98000,
      4.98100,      4.98200,      4.98300,      4.98400,      4.98500,
      4.98600,      4.98700,      4.98800,      4.98900,      4.99000,
      4.99100,      4.99200,      4.99300,      4.99400,      4.99500,
      4.99600,      4.99700,      4.99800,      4.99900,      5.00000,
      5.00100,      5.00200,      5.00300,      5.00400,      5.00500,
      5.00600,      5.00700,      5.00800,      5.00900,      5.01000,
      5.01100,      5.01200,      5.01300,      5.01400,      5.01500,
      5.01600,      5.01700,      5.01800,      5.01900,      5.02000,
      5.02100,      5.02200,      5.02300,      5.02400,      5.02500,
      5.02600,      5.02700,      5.02800,      5.02900,      5.03000,
      5.03100,      5.03200,      5.03300,      5.03400,      5.03500,
      5.03600,      5.03700,      5.03800,      5.03900,      5.04000,
      5.04100,      5.04200,      5.04300,      5.04400,      5.04500,
      5.04600,      5.04700,      5.04800,      5.04900,      5.05000,
      5.05100,      5.05200,      5.05300,      5.05400,      5.05500,
      5.05600,      5.05700,      5.05800,      5.05900,      5.06000,
      5.06100,      5.06200,      5.06300,      5.06400,      5.06500,
      5.06600,      5.06700,      5.06800,      5.06900,      5.07000,
      5.07100,      5.07200,      5.07300,      5.07400,      5.07500,
      5.07600,      5.07700,      5.07800,      5.07900,      5.08000,
      5.08100,      5.08200,      5.08300,      5.08400,      5.08500,
      5.08600,      5.08700,      5.08800,      5.08900,      5.09000,
      5.09100,      5.09200,      5.09300,      5.09400,      5.09500,
      5.09600,      5.09700,      5.09800,      5.09900,      5.10000,
      5.10100,      5.10200,      5.10300,      5.10400,      5.10500,
      5.10600,      5.10700,      5.10800,      5.10900,      5.11000,
      5.11100,      5.11200,      5.11300,      5.11400,      5.11500,
      5.11600,      5.11700,      5.11800,      5.11900,      5.12000,
      5.12100,      5.12200,      5.12300,      5.12400,      5.12500,
      5.12600,      5.12700,      5.12800,      5.12900,      5.13000,
      5.13100,      5.13200,      5.13300,      5.13400,      5.13500,
      5.13600,      5.13700,      5.13800,      5.13900,      5.14000,
      5.14100,      5.14200,      5.14300,      5.14400,      5.14500,
      5.14600,      5.14700,      5.14800,      5.14900,      5.15000,
      5.15100,      5.15200,      5.15300,      5.15400,      5.15500,
      5.15600,      5.15700,      5.15800,      5.15900,      5.16000,
      5.16100,      5.16200,      5.16300,      5.16400,      5.16500,
      5.16600,      5.16700,      5.16800,      5.16900,      5.17000,
      5.17100,      5.17200,      5.17300,      5.17400,      5.17500,
      5.17600,      5.17700,      5.17800,      5.17900,      5.18000,
      5.18100,      5.18200,      5.18300,      5.18400,      5.18500,
      5.18600,      5.18700,      5.18800,      5.18900,      5.19000,
      5.19100,      5.19200,      5.19300,      5.19400,      5.19500,
      5.19600,      5.19700,      5.19800,      5.19900,      5.20000,
      5.20100,      5.20200,      5.20300,      5.20400,      5.20500,
      5.20600,      5.20700,      5.20800,      5.20900,      5.21000,
      5.21100,      5.21200,      5.21300,      5.21400,      5.21500,
      5.21600,      5.21700,      5.21800,      5.21900,      5.22000,
      5.22100,      5.22200,      5.22300,      5.22400,      5.22500,
      5.22600,      5.22700,      5.22800,      5.22900,      5.23000,
      5.23100,      5.23200,      5.23300,      5.23400,      5.23500,
      5.23600,      5.23700,      5.23800,      5.23900,      5.24000,
      5.24100,      5.24200,      5.24300,      5.24400,      5.24500,
      5.24600,      5.24700,      5.24800,      5.24900,      5.25000,
      5.25100,      5.25200,      5.25300,      5.25400,      5.25500,
      5.25600,      5.25700,      5.25800,      5.25900,      5.26000,
      5.26100,      5.26200,      5.26300,      5.26400,      5.26500,
      5.26600,      5.26700,      5.26800,      5.26900,      5.27000,
      5.27100,      5.27200,      5.27300,      5.27400,      5.27500,
      5.27600,      5.27700,      5.27800,      5.27900,      5.28000,
      5.28100,      5.28200,      5.28300,      5.28400,      5.28500,
      5.28600,      5.28700,      5.28800,      5.28900,      5.29000,
      5.29100,      5.29200,      5.29300,      5.29400,      5.29500,
      5.29600,      5.29700,      5.29800,      5.29900,      5.30000,
      5.30100,      5.30200,      5.30300,      5.30400,      5.30500,
      5.30600,      5.30700,      5.30800,      5.30900,      5.31000,
      5.31100,      5.31200,      5.31300,      5.31400,      5.31500,
      5.31600,      5.31700,      5.31800,      5.31900,      5.32000,
      5.32100,      5.32200,      5.32300,      5.32400,      5.32500,
      5.32600,      5.32700,      5.32800,      5.32900,      5.33000,
      5.33100,      5.33200,      5.33300,      5.33400,      5.33500,
      5.33600,      5.33700,      5.33800,      5.33900,      5.34000,
      5.34100,      5.34200,      5.34300,      5.34400,      5.34500,
      5.34600,      5.34700,      5.34800,      5.34900,      5.35000,
      5.35100,      5.35200,      5.35300,      5.35400,      5.35500,
      5.35600,      5.35700,      5.35800,      5.35900,      5.36000,
      5.36100,      5.36200,      5.36300,      5.36400,      5.36500,
      5.36600,      5.36700,      5.36800,      5.36900,      5.37000,
      5.37100,      5.37200,      5.37300,      5.37400,      5.37500,
      5.37600,      5.37700,      5.37800,      5.37900,      5.38000,
      5.38100,      5.38200,      5.38300,      5.38400,      5.38500,
      5.38600,      5.38700,      5.38800,      5.38900,      5.39000,
      5.39100,      5.39200,      5.39300,      5.39400,      5.39500,
      5.39600,      5.39700,      5.39800,      5.39900,      5.40000,
      5.40100,      5.40200,      5.40300,      5.40400,      5.40500,
      5.40600,      5.40700,      5.40800,      5.40900,      5.41000,
      5.41100,      5.41200,      5.41300,      5.41400,      5.41500,
      5.41600,      5.41700,      5.41800,      5.41900,      5.42000,
      5.42100,      5.42200,      5.42300,      5.42400,      5.42500,
      5.42600,      5.42700,      5.42800,      5.42900,      5.43000,
      5.43100,      5.43200,      5.43300,      5.43400,      5.43500,
      5.43600,      5.43700,      5.43800,      5.43900,      5.44000,
      5.44100,      5.44200,      5.44300,      5.44400,      5.44500,
      5.44600,      5.44700,      5.44800,      5.44900,      5.45000,
      5.45100,      5.45200,      5.45300,      5.45400,      5.45500,
      5.45600,      5.45700,      5.45800,      5.45900,      5.46000,
      5.46100,      5.46200,      5.46300,      5.46400,      5.46500,
      5.46600,      5.46700,      5.46800,      5.46900,      5.47000,
      5.47100,      5.47200,      5.47300,      5.47400,      5.47500,
      5.47600,      5.47700,      5.47800,      5.47900,      5.48000,
      5.48100,      5.48200,      5.48300,      5.48400,      5.48500,
      5.48600,      5.48700,      5.48800,      5.48900,      5.49000,
      5.49100,      5.49200,      5.49300,      5.49400,      5.49500,
      5.49600,      5.49700,      5.49800,      5.49900,      5.50000,
      5.50100,      5.50200,      5.50300,      5.50400,      5.50500,
      5.50600,      5.50700,      5.50800,      5.50900,      5.51000,
      5.51100,      5.51200,      5.51300,      5.51400,      5.51500,
      5.51600,      5.51700,      5.51800,      5.51900,      5.52000,
      5.52100,      5.52200,      5.52300,      5.52400,      5.52500,
      5.52600,      5.52700,      5.52800,      5.52900,      5.53000,
      5.53100,      5.53200,      5.53300,      5.53400,      5.53500,
      5.53600,      5.53700,      5.53800,      5.53900,      5.54000,
      5.54100,      5.54200,      5.54300,      5.54400,      5.54500,
      5.54600,      5.54700,      5.54800,      5.54900,      5.55000,
      5.55100,      5.55200,      5.55300,      5.55400,      5.55500,
      5.55600,      5.55700,      5.55800,      5.55900,      5.56000,
      5.56100,      5.56200,      5.56300,      5.56400,      5.56500,
      5.56600,      5.56700,      5.56800,      5.56900,      5.57000,
      5.57100,      5.57200,      5.57300,      5.57400,      5.57500,
      5.57600,      5.57700,      5.57800,      5.57900,      5.58000,
      5.58100,      5.58200,      5.58300,      5.58400,      5.58500,
      5.58600,      5.58700,      5.58800,      5.58900,      5.59000,
      5.59100,      5.59200,      5.59300,      5.59400,      5.59500,
      5.59600,      5.59700,      5.59800,      5.59900,      5.60000,
      5.60100,      5.60200,      5.60300,      5.60400,      5.60500,
      5.60600,      5.60700,      5.60800,      5.60900,      5.61000,
      5.61100,      5.61200,      5.61300,      5.61400,      5.61500,
      5.61600,      5.61700,      5.61800,      5.61900,      5.62000,
      5.62100,      5.62200,      5.62300,      5.62400,      5.62500,
      5.62600,      5.62700,      5.62800,      5.62900,      5.63000,
      5.63100,      5.63200,      5.63300,      5.63400,      5.63500,
      5.63600,      5.63700,      5.63800,      5.63900,      5.64000,
      5.64100,      5.64200,      5.64300,      5.64400,      5.64500,
      5.64600,      5.64700,      5.64800,      5.64900,      5.65000,
      5.65100,      5.65200,      5.65300,      5.65400,      5.65500,
      5.65600,      5.65700,      5.65800,      5.65900,      5.66000,
      5.66100,      5.66200,      5.66300,      5.66400,      5.66500,
      5.66600,      5.66700,      5.66800,      5.66900,      5.67000,
      5.67100,      5.67200,      5.67300,      5.67400,      5.67500,
      5.67600,      5.67700,      5.67800,      5.67900,      5.68000,
      5.68100,      5.68200,      5.68300,      5.68400,      5.68500,
      5.68600,      5.68700,      5.68800,      5.68900,      5.69000,
      5.69100,      5.69200,      5.69300,      5.69400,      5.69500,
      5.69600,      5.69700,      5.69800,      5.69900,      5.70000,
      5.70100,      5.70200,      5.70300,      5.70400,      5.70500,
      5.70600,      5.70700,      5.70800,      5.70900,      5.71000,
      5.71100,      5.71200,      5.71300,      5.71400,      5.71500,
      5.71600,      5.71700,      5.71800,      5.71900,      5.72000,
      5.72100,      5.72200,      5.72300,      5.72400,      5.72500,
      5.72600,      5.72700,      5.72800,      5.72900,      5.73000,
      5.73100,      5.73200,      5.73300,      5.73400,      5.73500,
      5.73600,      5.73700,      5.73800,      5.73900,      5.74000,
      5.74100,      5.74200,      5.74300,      5.74400,      5.74500,
      5.74600,      5.74700,      5.74800,      5.74900,      5.75000,
      5.75100,      5.75200,      5.75300,      5.75400,      5.75500,
      5.75600,      5.75700,      5.75800,      5.75900,      5.76000,
      5.76100,      5.76200,      5.76300,      5.76400,      5.76500,
      5.76600,      5.76700,      5.76800,      5.76900,      5.77000,
      5.77100,      5.77200,      5.77300,      5.77400,      5.77500,
      5.77600,      5.77700,      5.77800,      5.77900,      5.78000,
      5.78100,      5.78200,      5.78300,      5.78400,      5.78500,
      5.78600,      5.78700,      5.78800,      5.78900,      5.79000,
      5.79100,      5.79200,      5.79300,      5.79400,      5.79500,
      5.79600,      5.79700,      5.79800,      5.79900,      5.80000,
      5.80100,      5.80200,      5.80300,      5.80400,      5.80500,
      5.80600,      5.80700,      5.80800,      5.80900,      5.81000,
      5.81100,      5.81200,      5.81300,      5.81400,      5.81500,
      5.81600,      5.81700,      5.81800,      5.81900,      5.82000,
      5.82100,      5.82200,      5.82300,      5.82400,      5.82500,
      5.82600,      5.82700,      5.82800,      5.82900,      5.83000,
      5.83100,      5.83200,      5.83300,      5.83400,      5.83500,
      5.83600,      5.83700,      5.83800,      5.83900,      5.84000,
      5.84100,      5.84200,      5.84300,      5.84400,      5.84500,
      5.84600,      5.84700,      5.84800,      5.84900,      5.85000,
      5.85100,      5.85200,      5.85300,      5.85400,      5.85500,
      5.85600,      5.85700,      5.85800,      5.85900,      5.86000,
      5.86100,      5.86200,      5.86300,      5.86400,      5.86500,
      5.86600,      5.86700,      5.86800,      5.86900,      5.87000,
      5.87100,      5.87200,      5.87300,      5.87400,      5.87500,
      5.87600,      5.87700,      5.87800,      5.87900,      5.88000,
      5.88100,      5.88200,      5.88300,      5.88400,      5.88500,
      5.88600,      5.88700,      5.88800,      5.88900,      5.89000,
      5.89100,      5.89200,      5.89300,      5.89400,      5.89500,
      5.89600,      5.89700,      5.89800,      5.89900,      5.90000,
      5.90100,      5.90200,      5.90300,      5.90400,      5.90500,
      5.90600,      5.90700,      5.90800,      5.90900,      5.91000,
      5.91100,      5.91200,      5.91300,      5.91400,      5.91500,
      5.91600,      5.91700,      5.91800,      5.91900,      5.92000,
      5.92100,      5.92200,      5.92300,      5.92400,      5.92500,
      5.92600,      5.92700,      5.92800,      5.92900,      5.93000,
      5.93100,      5.93200,      5.93300,      5.93400,      5.93500,
      5.93600,      5.93700,      5.93800,      5.93900,      5.94000,
      5.94100,      5.94200,      5.94300,      5.94400,      5.94500,
      5.94600,      5.94700,      5.94800,      5.94900,      5.95000,
      5.95100,      5.95200,      5.95300,      5.95400,      5.95500,
      5.95600,      5.95700,      5.95800,      5.95900,      5.96000,
      5.96100,      5.96200,      5.96300,      5.96400,      5.96500,
      5.96600,      5.96700,      5.96800,      5.96900,      5.97000,
      5.97100,      5.97200,      5.97300,      5.97400,      5.97500,
      5.97600,      5.97700,      5.97800,      5.97900,      5.98000,
      5.98100,      5.98200,      5.98300,      5.98400,      5.98500,
      5.98600,      5.98700,      5.98800,      5.98900,      5.99000,
      5.99100,      5.99200,      5.99300,      5.99400,      5.99500,
      5.99600,      5.99700,      5.99800,      5.99900,      6.00000,
      6.00100,      6.00200,      6.00300,      6.00400,      6.00500,
      6.00600,      6.00700,      6.00800,      6.00900,      6.01000,
      6.01100,      6.01200,      6.01300,      6.01400,      6.01500,
      6.01600,      6.01700,      6.01800,      6.01900,      6.02000,
      6.02100,      6.02200,      6.02300,      6.02400,      6.02500,
      6.02600,      6.02700,      6.02800,      6.02900,      6.03000,
      6.03100,      6.03200,      6.03300,      6.03400,      6.03500,
      6.03600,      6.03700,      6.03800,      6.03900,      6.04000,
      6.04100,      6.04200,      6.04300,      6.04400,      6.04500,
      6.04600,      6.04700,      6.04800,      6.04900,      6.05000,
      6.05100,      6.05200,      6.05300,      6.05400,      6.05500,
      6.05600,      6.05700,      6.05800,      6.05900,      6.06000,
      6.06100,      6.06200,      6.06300,      6.06400,      6.06500,
      6.06600,      6.06700,      6.06800,      6.06900,      6.07000,
      6.07100,      6.07200,      6.07300,      6.07400,      6.07500,
      6.07600,      6.07700,      6.07800,      6.07900,      6.08000,
      6.08100,      6.08200,      6.08300,      6.08400,      6.08500,
      6.08600,      6.08700,      6.08800,      6.08900,      6.09000,
      6.09100,      6.09200,      6.09300,      6.09400,      6.09500,
      6.09600,      6.09700,      6.09800,      6.09900,      6.10000,
      6.10100,      6.10200,      6.10300,      6.10400,      6.10500,
      6.10600,      6.10700,      6.10800,      6.10900,      6.11000,
      6.11100,      6.11200,      6.11300,      6.11400,      6.11500,
      6.11600,      6.11700,      6.11800,      6.11900,      6.12000,
      6.12100,      6.12200,      6.12300,      6.12400,      6.12500,
      6.12600,      6.12700,      6.12800,      6.12900,      6.13000,
      6.13100,      6.13200,      6.13300,      6.13400,      6.13500,
      6.13600,      6.13700,      6.13800,      6.13900,      6.14000,
      6.14100,      6.14200,      6.14300,      6.14400,      6.14500,
      6.14600,      6.14700,      6.14800,      6.14900,      6.15000,
      6.15100,      6.15200,      6.15300,      6.15400,      6.15500,
      6.15600,      6.15700,      6.15800,      6.15900,      6.16000,
      6.16100,      6.16200,      6.16300,      6.16400,      6.16500,
      6.16600,      6.16700,      6.16800,      6.16900,      6.17000,
      6.17100,      6.17200,      6.17300,      6.17400,      6.17500,
      6.17600,      6.17700,      6.17800,      6.17900,      6.18000,
      6.18100,      6.18200,      6.18300,      6.18400,      6.18500,
      6.18600,      6.18700,      6.18800,      6.18900,      6.19000,
      6.19100,      6.19200,      6.19300,      6.19400,      6.19500,
      6.19600,      6.19700,      6.19800,      6.19900,      6.20000,
      6.20100,      6.20200,      6.20300,      6.20400,      6.20500,
      6.20600,      6.20700,      6.20800,      6.20900,      6.21000,
      6.21100,      6.21200,      6.21300,      6.21400,      6.21500,
      6.21600,      6.21700,      6.21800,      6.21900,      6.22000,
      6.22100,      6.22200,      6.22300,      6.22400,      6.22500,
      6.22600,      6.22700,      6.22800,      6.22900,      6.23000,
      6.23100,      6.23200,      6.23300,      6.23400,      6.23500,
      6.23600,      6.23700,      6.23800,      6.23900,      6.24000,
      6.24100,      6.24200,      6.24300,      6.24400,      6.24500,
      6.24600,      6.24700,      6.24800,      6.24900,      6.25000,
      6.25100,      6.25200,      6.25300,      6.25400,      6.25500,
      6.25600,      6.25700,      6.25800,      6.25900,      6.26000,
      6.26100,      6.26200,      6.26300,      6.26400,      6.26500,
      6.26600,      6.26700,      6.26800,      6.26900,      6.27000,
      6.27100,      6.27200,      6.27300,      6.27400,      6.27500,
      6.27600,      6.27700,      6.27800,      6.27900,      6.28000,
      6.28100,      6.28200,      6.28300,      6.28400,      6.28500,
      6.28600,      6.28700,      6.28800,      6.28900,      6.29000,
      6.29100,      6.29200,      6.29300,      6.29400,      6.29500,
      6.29600,      6.29700,      6.29800,      6.29900,      6.30000,
      6.30100,      6.30200,      6.30300,      6.30400,      6.30500,
      6.30600,      6.30700,      6.30800,      6.30900,      6.31000,
      6.31100,      6.31200,      6.31300,      6.31400,      6.31500,
      6.31600,      6.31700,      6.31800,      6.31900,      6.32000,
      6.32100,      6.32200,      6.32300,      6.32400,      6.32500,
      6.32600,      6.32700,      6.32800,      6.32900,      6.33000,
      6.33100,      6.33200,      6.33300,      6.33400,      6.33500,
      6.33600,      6.33700,      6.33800,      6.33900,      6.34000,
      6.34100,      6.34200,      6.34300,      6.34400,      6.34500,
      6.34600,      6.34700,      6.34800,      6.34900,      6.35000,
      6.35100,      6.35200,      6.35300,      6.35400,      6.35500,
      6.35600,      6.35700,      6.35800,      6.35900,      6.36000,
      6.36100,      6.36200,      6.36300,      6.36400,      6.36500,
      6.36600,      6.36700,      6.36800,      6.36900,      6.37000,
      6.37100,      6.37200,      6.37300,      6.37400,      6.37500,
      6.37600,      6.37700,      6.37800,      6.37900,      6.38000,
      6.38100,      6.38200,      6.38300,      6.38400,      6.38500,
      6.38600,      6.38700,      6.38800,      6.38900,      6.39000,
      6.39100,      6.39200,      6.39300,      6.39400,      6.39500,
      6.39600,      6.39700,      6.39800,      6.39900,      6.40000,
      6.40100,      6.40200,      6.40300,      6.40400,      6.40500,
      6.40600,      6.40700,      6.40800,      6.40900,      6.41000,
      6.41100,      6.41200,      6.41300,      6.41400,      6.41500,
      6.41600,      6.41700,      6.41800,      6.41900,      6.42000,
      6.42100,      6.42200,      6.42300,      6.42400,      6.42500,
      6.42600,      6.42700,      6.42800,      6.42900,      6.43000,
      6.43100,      6.43200,      6.43300,      6.43400,      6.43500,
      6.43600,      6.43700,      6.43800,      6.43900,      6.44000,
      6.44100,      6.44200,      6.44300,      6.44400,      6.44500,
      6.44600,      6.44700,      6.44800,      6.44900,      6.45000,
      6.45100,      6.45200,      6.45300,      6.45400,      6.45500,
      6.45600,      6.45700,      6.45800,      6.45900,      6.46000,
      6.46100,      6.46200,      6.46300,      6.46400,      6.46500,
      6.46600,      6.46700,      6.46800,      6.46900,      6.47000,
      6.47100,      6.47200,      6.47300,      6.47400,      6.47500,
      6.47600,      6.47700,      6.47800,      6.47900,      6.48000,
      6.48100,      6.48200,      6.48300,      6.48400,      6.48500,
      6.48600,      6.48700,      6.48800,      6.48900,      6.49000,
      6.49100,      6.49200,      6.49300,      6.49400,      6.49500,
      6.49600,      6.49700,      6.49800,      6.49900,      6.50000,
      6.50100,      6.50200,      6.50300,      6.50400,      6.50500,
      6.50600,      6.50700,      6.50800,      6.50900,      6.51000,
      6.51100,      6.51200,      6.51300,      6.51400,      6.51500,
      6.51600,      6.51700,      6.51800,      6.51900,      6.52000,
      6.52100,      6.52200,      6.52300,      6.52400,      6.52500,
      6.52600,      6.52700,      6.52800,      6.52900,      6.53000,
      6.53100,      6.53200,      6.53300,      6.53400,      6.53500,
      6.53600,      6.53700,      6.53800,      6.53900,      6.54000,
      6.54100,      6.54200,      6.54300,      6.54400,      6.54500,
      6.54600,      6.54700,      6.54800,      6.54900,      6.55000,
      6.55100,      6.55200,      6.55300,      6.55400,      6.55500,
      6.55600,      6.55700,      6.55800,      6.55900,      6.56000,
      6.56100,      6.56200,      6.56300,      6.56400,      6.56500,
      6.56600,      6.56700,      6.56800,      6.56900,      6.57000,
      6.57100,      6.57200,      6.57300,      6.57400,      6.57500,
      6.57600,      6.57700,      6.57800,      6.57900,      6.58000,
      6.58100,      6.58200,      6.58300,      6.58400,      6.58500,
      6.58600,      6.58700,      6.58800,      6.58900,      6.59000,
      6.59100,      6.59200,      6.59300,      6.59400,      6.59500,
      6.59600,      6.59700,      6.59800,      6.59900,      6.60000,
      6.60100,      6.60200,      6.60300,      6.60400,      6.60500,
      6.60600,      6.60700,      6.60800,      6.60900,      6.61000,
      6.61100,      6.61200,      6.61300,      6.61400,      6.61500,
      6.61600,      6.61700,      6.61800,      6.61900,      6.62000,
      6.62100,      6.62200,      6.62300,      6.62400,      6.62500,
      6.62600,      6.62700,      6.62800,      6.62900,      6.63000,
      6.63100,      6.63200,      6.63300,      6.63400,      6.63500,
      6.63600,      6.63700,      6.63800,      6.63900,      6.64000,
      6.64100,      6.64200,      6.64300,      6.64400,      6.64500,
      6.64600,      6.64700,      6.64800,      6.64900,      6.65000,
      6.65100,      6.65200,      6.65300,      6.65400,      6.65500,
      6.65600,      6.65700,      6.65800,      6.65900,      6.66000,
      6.66100,      6.66200,      6.66300,      6.66400,      6.66500,
      6.66600,      6.66700,      6.66800,      6.66900,      6.67000,
      6.67100,      6.67200,      6.67300,      6.67400,      6.67500,
      6.67600,      6.67700,      6.67800,      6.67900,      6.68000,
      6.68100,      6.68200,      6.68300,      6.68400,      6.68500,
      6.68600,      6.68700,      6.68800,      6.68900,      6.69000,
      6.69100,      6.69200,      6.69300,      6.69400,      6.69500,
      6.69600,      6.69700,      6.69800,      6.69900,      6.70000,
      6.70100,      6.70200,      6.70300,      6.70400,      6.70500,
      6.70600,      6.70700,      6.70800,      6.70900,      6.71000,
      6.71100,      6.71200,      6.71300,      6.71400,      6.71500,
      6.71600,      6.71700,      6.71800,      6.71900,      6.72000,
      6.72100,      6.72200,      6.72300,      6.72400,      6.72500,
      6.72600,      6.72700,      6.72800,      6.72900,      6.73000,
      6.73100,      6.73200,      6.73300,      6.73400,      6.73500,
      6.73600,      6.73700,      6.73800,      6.73900,      6.74000,
      6.74100,      6.74200,      6.74300,      6.74400,      6.74500,
      6.74600,      6.74700,      6.74800,      6.74900,      6.75000,
      6.75100,      6.75200,      6.75300,      6.75400,      6.75500,
      6.75600,      6.75700,      6.75800,      6.75900,      6.76000,
      6.76100,      6.76200,      6.76300,      6.76400,      6.76500,
      6.76600,      6.76700,      6.76800,      6.76900,      6.77000,
      6.77100,      6.77200,      6.77300,      6.77400,      6.77500,
      6.77600,      6.77700,      6.77800,      6.77900,      6.78000,
      6.78100,      6.78200,      6.78300,      6.78400,      6.78500,
      6.78600,      6.78700,      6.78800,      6.78900,      6.79000,
      6.79100,      6.79200,      6.79300,      6.79400,      6.79500,
      6.79600,      6.79700,      6.79800,      6.79900,      6.80000,
      6.80100,      6.80200,      6.80300,      6.80400,      6.80500,
      6.80600,      6.80700,      6.80800,      6.80900,      6.81000,
      6.81100,      6.81200,      6.81300,      6.81400,      6.81500,
      6.81600,      6.81700,      6.81800,      6.81900,      6.82000,
      6.82100,      6.82200,      6.82300,      6.82400,      6.82500,
      6.82600,      6.82700,      6.82800,      6.82900,      6.83000,
      6.83100,      6.83200,      6.83300,      6.83400,      6.83500,
      6.83600,      6.83700,      6.83800,      6.83900,      6.84000,
      6.84100,      6.84200,      6.84300,      6.84400,      6.84500,
      6.84600,      6.84700,      6.84800,      6.84900,      6.85000,
      6.85100,      6.85200,      6.85300,      6.85400,      6.85500,
      6.85600,      6.85700,      6.85800,      6.85900,      6.86000,
      6.86100,      6.86200,      6.86300,      6.86400,      6.86500,
      6.86600,      6.86700,      6.86800,      6.86900,      6.87000,
      6.87100,      6.87200,      6.87300,      6.87400,      6.87500,
      6.87600,      6.87700,      6.87800,      6.87900,      6.88000,
      6.88100,      6.88200,      6.88300,      6.88400,      6.88500,
      6.88600,      6.88700,      6.88800,      6.88900,      6.89000,
      6.89100,      6.89200,      6.89300,      6.89400,      6.89500,
      6.89600,      6.89700,      6.89800,      6.89900,      6.90000,
      6.90100,      6.90200,      6.90300,      6.90400,      6.90500,
      6.90600,      6.90700,      6.90800,      6.90900,      6.91000,
      6.91100,      6.91200,      6.91300,      6.91400,      6.91500,
      6.91600,      6.91700,      6.91800,      6.91900,      6.92000,
      6.92100,      6.92200,      6.92300,      6.92400,      6.92500,
      6.92600,      6.92700,      6.92800,      6.92900,      6.93000,
      6.93100,      6.93200,      6.93300,      6.93400,      6.93500,
      6.93600,      6.93700,      6.93800,      6.93900,      6.94000,
      6.94100,      6.94200,      6.94300,      6.94400,      6.94500,
      6.94600,      6.94700,      6.94800,      6.94900,      6.95000,
      6.95100,      6.95200,      6.95300,      6.95400,      6.95500,
      6.95600,      6.95700,      6.95800,      6.95900,      6.96000,
      6.96100,      6.96200,      6.96300,      6.96400,      6.96500,
      6.96600,      6.96700,      6.96800,      6.96900,      6.97000,
      6.97100,      6.97200,      6.97300,      6.97400,      6.97500,
      6.97600,      6.97700,      6.97800,      6.97900,      6.98000,
      6.98100,      6.98200,      6.98300,      6.98400,      6.98500,
      6.98600,      6.98700,      6.98800,      6.98900,      6.99000,
      6.99100,      6.99200,      6.99300,      6.99400,      6.99500,
      6.99600,      6.99700,      6.99800,      6.99900,      7.00000,
      7.00100,      7.00200,      7.00300,      7.00400,      7.00500,
      7.00600,      7.00700,      7.00800,      7.00900,      7.01000,
      7.01100,      7.01200,      7.01300,      7.01400,      7.01500,
      7.01600,      7.01700,      7.01800,      7.01900,      7.02000,
      7.02100,      7.02200,      7.02300,      7.02400,      7.02500,
      7.02600,      7.02700,      7.02800,      7.02900,      7.03000,
      7.03100,      7.03200,      7.03300,      7.03400,      7.03500,
      7.03600,      7.03700,      7.03800,      7.03900,      7.04000,
      7.04100,      7.04200,      7.04300,      7.04400,      7.04500,
      7.04600,      7.04700,      7.04800,      7.04900,      7.05000,
      7.05100,      7.05200,      7.05300,      7.05400,      7.05500,
      7.05600,      7.05700,      7.05800,      7.05900,      7.06000,
      7.06100,      7.06200,      7.06300,      7.06400,      7.06500,
      7.06600,      7.06700,      7.06800,      7.06900,      7.07000,
      7.07100,      7.07200,      7.07300,      7.07400,      7.07500,
      7.07600,      7.07700,      7.07800,      7.07900,      7.08000,
      7.08100,      7.08200,      7.08300,      7.08400,      7.08500,
      7.08600,      7.08700,      7.08800,      7.08900,      7.09000,
      7.09100,      7.09200,      7.09300,      7.09400,      7.09500,
      7.09600,      7.09700,      7.09800,      7.09900,      7.10000,
      7.10100,      7.10200,      7.10300,      7.10400,      7.10500,
      7.10600,      7.10700,      7.10800,      7.10900,      7.11000,
      7.11100,      7.11200,      7.11300,      7.11400,      7.11500,
      7.11600,      7.11700,      7.11800,      7.11900,      7.12000,
      7.12100,      7.12200,      7.12300,      7.12400,      7.12500,
      7.12600,      7.12700,      7.12800,      7.12900,      7.13000,
      7.13100,      7.13200,      7.13300,      7.13400,      7.13500,
      7.13600,      7.13700,      7.13800,      7.13900,      7.14000,
      7.14100,      7.14200,      7.14300,      7.14400,      7.14500,
      7.14600,      7.14700,      7.14800,      7.14900,      7.15000,
      7.15100,      7.15200,      7.15300,      7.15400,      7.15500,
      7.15600,      7.15700,      7.15800,      7.15900,      7.16000,
      7.16100,      7.16200,      7.16300,      7.16400,      7.16500,
      7.16600,      7.16700,      7.16800,      7.16900,      7.17000,
      7.17100,      7.17200,      7.17300,      7.17400,      7.17500,
      7.17600,      7.17700,      7.17800,      7.17900,      7.18000,
      7.18100,      7.18200,      7.18300,      7.18400,      7.18500,
      7.18600,      7.18700,      7.18800,      7.18900,      7.19000,
      7.19100,      7.19200,      7.19300,      7.19400,      7.19500,
      7.19600,      7.19700,      7.19800,      7.19900,      7.20000,
      7.20100,      7.20200,      7.20300,      7.20400,      7.20500,
      7.20600,      7.20700,      7.20800,      7.20900,      7.21000,
      7.21100,      7.21200,      7.21300,      7.21400,      7.21500,
      7.21600,      7.21700,      7.21800,      7.21900,      7.22000,
      7.22100,      7.22200,      7.22300,      7.22400,      7.22500,
      7.22600,      7.22700,      7.22800,      7.22900,      7.23000,
      7.23100,      7.23200,      7.23300,      7.23400,      7.23500,
      7.23600,      7.23700,      7.23800,      7.23900,      7.24000,
      7.24100,      7.24200,      7.24300,      7.24400,      7.24500,
      7.24600,      7.24700,      7.24800,      7.24900,      7.25000,
      7.25100,      7.25200,      7.25300,      7.25400,      7.25500,
      7.25600,      7.25700,      7.25800,      7.25900,      7.26000,
      7.26100,      7.26200,      7.26300,      7.26400,      7.26500,
      7.26600,      7.26700,      7.26800,      7.26900,      7.27000,
      7.27100,      7.27200,      7.27300,      7.27400,      7.27500,
      7.27600,      7.27700,      7.27800,      7.27900,      7.28000,
      7.28100,      7.28200,      7.28300,      7.28400,      7.28500,
      7.28600,      7.28700,      7.28800,      7.28900,      7.29000,
      7.29100,      7.29200,      7.29300,      7.29400,      7.29500,
      7.29600,      7.29700,      7.29800,      7.29900,      7.30000,
      7.30100,      7.30200,      7.30300,      7.30400,      7.30500,
      7.30600,      7.30700,      7.30800,      7.30900,      7.31000,
      7.31100,      7.31200,      7.31300,      7.31400,      7.31500,
      7.31600,      7.31700,      7.31800,      7.31900,      7.32000,
      7.32100,      7.32200,      7.32300,      7.32400,      7.32500,
      7.32600,      7.32700,      7.32800,      7.32900,      7.33000,
      7.33100,      7.33200,      7.33300,      7.33400,      7.33500,
      7.33600,      7.33700,      7.33800,      7.33900,      7.34000,
      7.34100,      7.34200,      7.34300,      7.34400,      7.34500,
      7.34600,      7.34700,      7.34800,      7.34900,      7.35000,
      7.35100,      7.35200,      7.35300,      7.35400,      7.35500,
      7.35600,      7.35700,      7.35800,      7.35900,      7.36000,
      7.36100,      7.36200,      7.36300,      7.36400,      7.36500,
      7.36600,      7.36700,      7.36800,      7.36900,      7.37000,
      7.37100,      7.37200,      7.37300,      7.37400,      7.37500,
      7.37600,      7.37700,      7.37800,      7.37900,      7.38000,
      7.38100,      7.38200,      7.38300,      7.38400,      7.38500,
      7.38600,      7.38700,      7.38800,      7.38900,      7.39000,
      7.39100,      7.39200,      7.39300,      7.39400,      7.39500,
      7.39600,      7.39700,      7.39800,      7.39900,      7.40000,
      7.40100,      7.40200,      7.40300,      7.40400,      7.40500,
      7.40600,      7.40700,      7.40800,      7.40900,      7.41000,
      7.41100,      7.41200,      7.41300,      7.41400,      7.41500,
      7.41600,      7.41700,      7.41800,      7.41900,      7.42000,
      7.42100,      7.42200,      7.42300,      7.42400,      7.42500,
      7.42600,      7.42700,      7.42800,      7.42900,      7.43000,
      7.43100,      7.43200,      7.43300,      7.43400,      7.43500,
      7.43600,      7.43700,      7.43800,      7.43900,      7.44000,
      7.44100,      7.44200,      7.44300,      7.44400,      7.44500,
      7.44600,      7.44700,      7.44800,      7.44900,      7.45000,
      7.45100,      7.45200,      7.45300,      7.45400,      7.45500,
      7.45600,      7.45700,      7.45800,      7.45900,      7.46000,
      7.46100,      7.46200,      7.46300,      7.46400,      7.46500,
      7.46600,      7.46700,      7.46800,      7.46900,      7.47000,
      7.47100,      7.47200,      7.47300,      7.47400,      7.47500,
      7.47600,      7.47700,      7.47800,      7.47900,      7.48000,
      7.48100,      7.48200,      7.48300,      7.48400,      7.48500,
      7.48600,      7.48700,      7.48800,      7.48900,      7.49000,
      7.49100,      7.49200,      7.49300,      7.49400,      7.49500,
      7.49600,      7.49700,      7.49800,      7.49900,      7.50000,
      7.50100,      7.50200,      7.50300,      7.50400,      7.50500,
      7.50600,      7.50700,      7.50800,      7.50900,      7.51000,
      7.51100,      7.51200,      7.51300,      7.51400,      7.51500,
      7.51600,      7.51700,      7.51800,      7.51900,      7.52000,
      7.52100,      7.52200,      7.52300,      7.52400,      7.52500,
      7.52600,      7.52700,      7.52800,      7.52900,      7.53000,
      7.53100,      7.53200,      7.53300,      7.53400,      7.53500,
      7.53600,      7.53700,      7.53800,      7.53900,      7.54000,
      7.54100,      7.54200,      7.54300,      7.54400,      7.54500,
      7.54600,      7.54700,      7.54800,      7.54900,      7.55000,
      7.55100,      7.55200,      7.55300,      7.55400,      7.55500,
      7.55600,      7.55700,      7.55800,      7.55900,      7.56000,
      7.56100,      7.56200,      7.56300,      7.56400,      7.56500,
      7.56600,      7.56700,      7.56800,      7.56900,      7.57000,
      7.57100,      7.57200,      7.57300,      7.57400,      7.57500,
      7.57600,      7.57700,      7.57800,      7.57900,      7.58000,
      7.58100,      7.58200,      7.58300,      7.58400,      7.58500,
      7.58600,      7.58700,      7.58800,      7.58900,      7.59000,
      7.59100,      7.59200,      7.59300,      7.59400,      7.59500,
      7.59600,      7.59700,      7.59800,      7.59900,      7.60000,
      7.60100,      7.60200,      7.60300,      7.60400,      7.60500,
      7.60600,      7.60700,      7.60800,      7.60900,      7.61000,
      7.61100,      7.61200,      7.61300,      7.61400,      7.61500,
      7.61600,      7.61700,      7.61800,      7.61900,      7.62000,
      7.62100,      7.62200,      7.62300,      7.62400,      7.62500,
      7.62600,      7.62700,      7.62800,      7.62900,      7.63000,
      7.63100,      7.63200,      7.63300,      7.63400,      7.63500,
      7.63600,      7.63700,      7.63800,      7.63900,      7.64000,
      7.64100,      7.64200,      7.64300,      7.64400,      7.64500,
      7.64600,      7.64700,      7.64800,      7.64900,      7.65000,
      7.65100,      7.65200,      7.65300,      7.65400,      7.65500,
      7.65600,      7.65700,      7.65800,      7.65900,      7.66000,
      7.66100,      7.66200,      7.66300,      7.66400,      7.66500,
      7.66600,      7.66700,      7.66800,      7.66900,      7.67000,
      7.67100,      7.67200,      7.67300,      7.67400,      7.67500,
      7.67600,      7.67700,      7.67800,      7.67900,      7.68000,
      7.68100,      7.68200,      7.68300,      7.68400,      7.68500,
      7.68600,      7.68700,      7.68800,      7.68900,      7.69000,
      7.69100,      7.69200,      7.69300,      7.69400,      7.69500,
      7.69600,      7.69700,      7.69800,      7.69900,      7.70000,
      7.70100,      7.70200,      7.70300,      7.70400,      7.70500,
      7.70600,      7.70700,      7.70800,      7.70900,      7.71000,
      7.71100,      7.71200,      7.71300,      7.71400,      7.71500,
      7.71600,      7.71700,      7.71800,      7.71900,      7.72000,
      7.72100,      7.72200,      7.72300,      7.72400,      7.72500,
      7.72600,      7.72700,      7.72800,      7.72900,      7.73000,
      7.73100,      7.73200,      7.73300,      7.73400,      7.73500,
      7.73600,      7.73700,      7.73800,      7.73900,      7.74000,
      7.74100,      7.74200,      7.74300,      7.74400,      7.74500,
      7.74600,      7.74700,      7.74800,      7.74900,      7.75000,
      7.75100,      7.75200,      7.75300,      7.75400,      7.75500,
      7.75600,      7.75700,      7.75800,      7.75900,      7.76000,
      7.76100,      7.76200,      7.76300,      7.76400,      7.76500,
      7.76600,      7.76700,      7.76800,      7.76900,      7.77000,
      7.77100,      7.77200,      7.77300,      7.77400,      7.77500,
      7.77600,      7.77700,      7.77800,      7.77900,      7.78000,
      7.78100,      7.78200,      7.78300,      7.78400,      7.78500,
      7.78600,      7.78700,      7.78800,      7.78900,      7.79000,
      7.79100,      7.79200,      7.79300,      7.79400,      7.79500,
      7.79600,      7.79700,      7.79800,      7.79900,      7.80000,
      7.80100,      7.80200,      7.80300,      7.80400,      7.80500,
      7.80600,      7.80700,      7.80800,      7.80900,      7.81000,
      7.81100,      7.81200,      7.81300,      7.81400,      7.81500,
      7.81600,      7.81700,      7.81800,      7.81900,      7.82000,
      7.82100,      7.82200,      7.82300,      7.82400,      7.82500,
      7.82600,      7.82700,      7.82800,      7.82900,      7.83000,
      7.83100,      7.83200,      7.83300,      7.83400,      7.83500,
      7.83600,      7.83700,      7.83800,      7.83900,      7.84000,
      7.84100,      7.84200,      7.84300,      7.84400,      7.84500,
      7.84600,      7.84700,      7.84800,      7.84900,      7.85000,
      7.85100,      7.85200,      7.85300,      7.85400,      7.85500,
      7.85600,      7.85700,      7.85800,      7.85900,      7.86000,
      7.86100,      7.86200,      7.86300,      7.86400,      7.86500,
      7.86600,      7.86700,      7.86800,      7.86900,      7.87000,
      7.87100,      7.87200,      7.87300,      7.87400,      7.87500,
      7.87600,      7.87700,      7.87800,      7.87900,      7.88000,
      7.88100,      7.88200,      7.88300,      7.88400,      7.88500,
      7.88600,      7.88700,      7.88800,      7.88900,      7.89000,
      7.89100,      7.89200,      7.89300,      7.89400,      7.89500,
      7.89600,      7.89700,      7.89800,      7.89900,      7.90000,
      7.90100,      7.90200,      7.90300,      7.90400,      7.90500,
      7.90600,      7.90700,      7.90800,      7.90900,      7.91000,
      7.91100,      7.91200,      7.91300,      7.91400,      7.91500,
      7.91600,      7.91700,      7.91800,      7.91900,      7.92000,
      7.92100,      7.92200,      7.92300,      7.92400,      7.92500,
      7.92600,      7.92700,      7.92800,      7.92900,      7.93000,
      7.93100,      7.93200,      7.93300,      7.93400,      7.93500,
      7.93600,      7.93700,      7.93800,      7.93900,      7.94000,
      7.94100,      7.94200,      7.94300,      7.94400,      7.94500,
      7.94600,      7.94700,      7.94800,      7.94900,      7.95000,
      7.95100,      7.95200,      7.95300,      7.95400,      7.95500,
      7.95600,      7.95700,      7.95800,      7.95900,      7.96000,
      7.96100,      7.96200,      7.96300,      7.96400,      7.96500,
      7.96600,      7.96700,      7.96800,      7.96900,      7.97000,
      7.97100,      7.97200,      7.97300,      7.97400,      7.97500,
      7.97600,      7.97700,      7.97800,      7.97900,      7.98000,
      7.98100,      7.98200,      7.98300,      7.98400,      7.98500,
      7.98600,      7.98700,      7.98800,      7.98900,      7.99000,
      7.99100,      7.99200,      7.99300,      7.99400,      7.99500,
      7.99600,      7.99700,      7.99800,      7.99900,      8.00000,
      8.00100,      8.00200,      8.00300,      8.00400,      8.00500,
      8.00600,      8.00700,      8.00800,      8.00900,      8.01000,
      8.01100,      8.01200,      8.01300,      8.01400,      8.01500,
      8.01600,      8.01700,      8.01800,      8.01900,      8.02000,
      8.02100,      8.02200,      8.02300,      8.02400,      8.02500,
      8.02600,      8.02700,      8.02800,      8.02900,      8.03000,
      8.03100,      8.03200,      8.03300,      8.03400,      8.03500,
      8.03600,      8.03700,      8.03800,      8.03900,      8.04000,
      8.04100,      8.04200,      8.04300,      8.04400,      8.04500,
      8.04600,      8.04700,      8.04800,      8.04900,      8.05000,
      8.05100,      8.05200,      8.05300,      8.05400,      8.05500,
      8.05600,      8.05700,      8.05800,      8.05900,      8.06000,
      8.06100,      8.06200,      8.06300,      8.06400,      8.06500,
      8.06600,      8.06700,      8.06800,      8.06900,      8.07000,
      8.07100,      8.07200,      8.07300,      8.07400,      8.07500,
      8.07600,      8.07700,      8.07800,      8.07900,      8.08000,
      8.08100,      8.08200,      8.08300,      8.08400,      8.08500,
      8.08600,      8.08700,      8.08800,      8.08900,      8.09000,
      8.09100,      8.09200,      8.09300,      8.09400,      8.09500,
      8.09600,      8.09700,      8.09800,      8.09900,      8.10000,
      8.10100,      8.10200,      8.10300,      8.10400,      8.10500,
      8.10600,      8.10700,      8.10800,      8.10900,      8.11000,
      8.11100,      8.11200,      8.11300,      8.11400,      8.11500,
      8.11600,      8.11700,      8.11800,      8.11900,      8.12000,
      8.12100,      8.12200,      8.12300,      8.12400,      8.12500,
      8.12600,      8.12700,      8.12800,      8.12900,      8.13000,
      8.13100,      8.13200,      8.13300,      8.13400,      8.13500,
      8.13600,      8.13700,      8.13800,      8.13900,      8.14000,
      8.14100,      8.14200,      8.14300,      8.14400,      8.14500,
      8.14600,      8.14700,      8.14800,      8.14900,      8.15000,
      8.15100,      8.15200,      8.15300,      8.15400,      8.15500,
      8.15600,      8.15700,      8.15800,      8.15900,      8.16000,
      8.16100,      8.16200,      8.16300,      8.16400,      8.16500,
      8.16600,      8.16700,      8.16800,      8.16900,      8.17000,
      8.17100,      8.17200,      8.17300,      8.17400,      8.17500,
      8.17600,      8.17700,      8.17800,      8.17900,      8.18000,
      8.18100,      8.18200,      8.18300,      8.18400,      8.18500,
      8.18600,      8.18700,      8.18800,      8.18900,      8.19000,
      8.19100,      8.19200,      8.19300,      8.19400,      8.19500,
      8.19600,      8.19700,      8.19800,      8.19900,      8.20000,
      8.20100,      8.20200,      8.20300,      8.20400,      8.20500,
      8.20600,      8.20700,      8.20800,      8.20900,      8.21000,
      8.21100,      8.21200,      8.21300,      8.21400,      8.21500,
      8.21600,      8.21700,      8.21800,      8.21900,      8.22000,
      8.22100,      8.22200,      8.22300,      8.22400,      8.22500,
      8.22600,      8.22700,      8.22800,      8.22900,      8.23000,
      8.23100,      8.23200,      8.23300,      8.23400,      8.23500,
      8.23600,      8.23700,      8.23800,      8.23900,      8.24000,
      8.24100,      8.24200,      8.24300,      8.24400,      8.24500,
      8.24600,      8.24700,      8.24800,      8.24900,      8.25000,
      8.25100,      8.25200,      8.25300,      8.25400,      8.25500,
      8.25600,      8.25700,      8.25800,      8.25900,      8.26000,
      8.26100,      8.26200,      8.26300,      8.26400,      8.26500,
      8.26600,      8.26700,      8.26800,      8.26900,      8.27000,
      8.27100,      8.27200,      8.27300,      8.27400,      8.27500,
      8.27600,      8.27700,      8.27800,      8.27900,      8.28000,
      8.28100,      8.28200,      8.28300,      8.28400,      8.28500,
      8.28600,      8.28700,      8.28800,      8.28900,      8.29000,
      8.29100,      8.29200,      8.29300,      8.29400,      8.29500,
      8.29600,      8.29700,      8.29800,      8.29900,      8.30000,
      8.30100,      8.30200,      8.30300,      8.30400,      8.30500,
      8.30600,      8.30700,      8.30800,      8.30900,      8.31000,
      8.31100,      8.31200,      8.31300,      8.31400,      8.31500,
      8.31600,      8.31700,      8.31800,      8.31900,      8.32000,
      8.32100,      8.32200,      8.32300,      8.32400,      8.32500,
      8.32600,      8.32700,      8.32800,      8.32900,      8.33000,
      8.33100,      8.33200,      8.33300,      8.33400,      8.33500,
      8.33600,      8.33700,      8.33800,      8.33900,      8.34000,
      8.34100,      8.34200,      8.34300,      8.34400,      8.34500,
      8.34600,      8.34700,      8.34800,      8.34900,      8.35000,
      8.35100,      8.35200,      8.35300,      8.35400,      8.35500,
      8.35600,      8.35700,      8.35800,      8.35900,      8.36000,
      8.36100,      8.36200,      8.36300,      8.36400,      8.36500,
      8.36600,      8.36700,      8.36800,      8.36900,      8.37000,
      8.37100,      8.37200,      8.37300,      8.37400,      8.37500,
      8.37600,      8.37700,      8.37800,      8.37900,      8.38000,
      8.38100,      8.38200,      8.38300,      8.38400,      8.38500,
      8.38600,      8.38700,      8.38800,      8.38900,      8.39000,
      8.39100,      8.39200,      8.39300,      8.39400,      8.39500,
      8.39600,      8.39700,      8.39800,      8.39900,      8.40000,
      8.40100,      8.40200,      8.40300,      8.40400,      8.40500,
      8.40600,      8.40700,      8.40800,      8.40900,      8.41000,
      8.41100,      8.41200,      8.41300,      8.41400,      8.41500,
      8.41600,      8.41700,      8.41800,      8.41900,      8.42000,
      8.42100,      8.42200,      8.42300,      8.42400,      8.42500,
      8.42600,      8.42700,      8.42800,      8.42900,      8.43000,
      8.43100,      8.43200,      8.43300,      8.43400,      8.43500,
      8.43600,      8.43700,      8.43800,      8.43900,      8.44000,
      8.44100,      8.44200,      8.44300,      8.44400,      8.44500,
      8.44600,      8.44700,      8.44800,      8.44900,      8.45000,
      8.45100,      8.45200,      8.45300,      8.45400,      8.45500,
      8.45600,      8.45700,      8.45800,      8.45900,      8.46000,
      8.46100,      8.46200,      8.46300,      8.46400,      8.46500,
      8.46600,      8.46700,      8.46800,      8.46900,      8.47000,
      8.47100,      8.47200,      8.47300,      8.47400,      8.47500,
      8.47600,      8.47700,      8.47800,      8.47900,      8.48000,
      8.48100,      8.48200,      8.48300,      8.48400,      8.48500,
      8.48600,      8.48700,      8.48800,      8.48900,      8.49000,
      8.49100,      8.49200,      8.49300,      8.49400,      8.49500,
      8.49600,      8.49700,      8.49800,      8.49900,      8.50000,
      8.50100,      8.50200,      8.50300,      8.50400,      8.50500,
      8.50600,      8.50700,      8.50800,      8.50900,      8.51000,
      8.51100,      8.51200,      8.51300,      8.51400,      8.51500,
      8.51600,      8.51700,      8.51800,      8.51900,      8.52000,
      8.52100,      8.52200,      8.52300,      8.52400,      8.52500,
      8.52600,      8.52700,      8.52800,      8.52900,      8.53000,
      8.53100,      8.53200,      8.53300,      8.53400,      8.53500,
      8.53600,      8.53700,      8.53800,      8.53900,      8.54000,
      8.54100,      8.54200,      8.54300,      8.54400,      8.54500,
      8.54600,      8.54700,      8.54800,      8.54900,      8.55000,
      8.55100,      8.55200,      8.55300,      8.55400,      8.55500,
      8.55600,      8.55700,      8.55800,      8.55900,      8.56000,
      8.56100,      8.56200,      8.56300,      8.56400,      8.56500,
      8.56600,      8.56700,      8.56800,      8.56900,      8.57000,
      8.57100,      8.57200,      8.57300,      8.57400,      8.57500,
      8.57600,      8.57700,      8.57800,      8.57900,      8.58000,
      8.58100,      8.58200,      8.58300,      8.58400,      8.58500,
      8.58600,      8.58700,      8.58800,      8.58900,      8.59000,
      8.59100,      8.59200,      8.59300,      8.59400,      8.59500,
      8.59600,      8.59700,      8.59800,      8.59900,      8.60000,
      8.60100,      8.60200,      8.60300,      8.60400,      8.60500,
      8.60600,      8.60700,      8.60800,      8.60900,      8.61000,
      8.61100,      8.61200,      8.61300,      8.61400,      8.61500,
      8.61600,      8.61700,      8.61800,      8.61900,      8.62000,
      8.62100,      8.62200,      8.62300,      8.62400,      8.62500,
      8.62600,      8.62700,      8.62800,      8.62900,      8.63000,
      8.63100,      8.63200,      8.63300,      8.63400,      8.63500,
      8.63600,      8.63700,      8.63800,      8.63900,      8.64000,
      8.64100,      8.64200,      8.64300,      8.64400,      8.64500,
      8.64600,      8.64700,      8.64800,      8.64900,      8.65000,
      8.65100,      8.65200,      8.65300,      8.65400,      8.65500,
      8.65600,      8.65700,      8.65800,      8.65900,      8.66000,
      8.66100,      8.66200,      8.66300,      8.66400,      8.66500,
      8.66600,      8.66700,      8.66800,      8.66900,      8.67000,
      8.67100,      8.67200,      8.67300,      8.67400,      8.67500,
      8.67600,      8.67700,      8.67800,      8.67900,      8.68000,
      8.68100,      8.68200,      8.68300,      8.68400,      8.68500,
      8.68600,      8.68700,      8.68800,      8.68900,      8.69000,
      8.69100,      8.69200,      8.69300,      8.69400,      8.69500,
      8.69600,      8.69700,      8.69800,      8.69900,      8.70000,
      8.70100,      8.70200,      8.70300,      8.70400,      8.70500,
      8.70600,      8.70700,      8.70800,      8.70900,      8.71000,
      8.71100,      8.71200,      8.71300,      8.71400,      8.71500,
      8.71600,      8.71700,      8.71800,      8.71900,      8.72000,
      8.72100,      8.72200,      8.72300,      8.72400,      8.72500,
      8.72600,      8.72700,      8.72800,      8.72900,      8.73000,
      8.73100,      8.73200,      8.73300,      8.73400,      8.73500,
      8.73600,      8.73700,      8.73800,      8.73900,      8.74000,
      8.74100,      8.74200,      8.74300,      8.74400,      8.74500,
      8.74600,      8.74700,      8.74800,      8.74900,      8.75000,
      8.75100,      8.75200,      8.75300,      8.75400,      8.75500,
      8.75600,      8.75700,      8.75800,      8.75900,      8.76000,
      8.76100,      8.76200,      8.76300,      8.76400,      8.76500,
      8.76600,      8.76700,      8.76800,      8.76900,      8.77000,
      8.77100,      8.77200,      8.77300,      8.77400,      8.77500,
      8.77600,      8.77700,      8.77800,      8.77900,      8.78000,
      8.78100,      8.78200,      8.78300,      8.78400,      8.78500,
      8.78600,      8.78700,      8.78800,      8.78900,      8.79000,
      8.79100,      8.79200,      8.79300,      8.79400,      8.79500,
      8.79600,      8.79700,      8.79800,      8.79900,      8.80000,
      8.80100,      8.80200,      8.80300,      8.80400,      8.80500,
      8.80600,      8.80700,      8.80800,      8.80900,      8.81000,
      8.81100,      8.81200,      8.81300,      8.81400,      8.81500,
      8.81600,      8.81700,      8.81800,      8.81900,      8.82000,
      8.82100,      8.82200,      8.82300,      8.82400,      8.82500,
      8.82600,      8.82700,      8.82800,      8.82900,      8.83000,
      8.83100,      8.83200,      8.83300,      8.83400,      8.83500,
      8.83600,      8.83700,      8.83800,      8.83900,      8.84000,
      8.84100,      8.84200,      8.84300,      8.84400,      8.84500,
      8.84600,      8.84700,      8.84800,      8.84900,      8.85000,
      8.85100,      8.85200,      8.85300,      8.85400,      8.85500,
      8.85600,      8.85700,      8.85800,      8.85900,      8.86000,
      8.86100,      8.86200,      8.86300,      8.86400,      8.86500,
      8.86600,      8.86700,      8.86800,      8.86900,      8.87000,
      8.87100,      8.87200,      8.87300,      8.87400,      8.87500,
      8.87600,      8.87700,      8.87800,      8.87900,      8.88000,
      8.88100,      8.88200,      8.88300,      8.88400,      8.88500,
      8.88600,      8.88700,      8.88800,      8.88900,      8.89000,
      8.89100,      8.89200,      8.89300,      8.89400,      8.89500,
      8.89600,      8.89700,      8.89800,      8.89900,      8.90000,
      8.90100,      8.90200,      8.90300,      8.90400,      8.90500,
      8.90600,      8.90700,      8.90800,      8.90900,      8.91000,
      8.91100,      8.91200,      8.91300,      8.91400,      8.91500,
      8.91600,      8.91700,      8.91800,      8.91900,      8.92000,
      8.92100,      8.92200,      8.92300,      8.92400,      8.92500,
      8.92600,      8.92700,      8.92800,      8.92900,      8.93000,
      8.93100,      8.93200,      8.93300,      8.93400,      8.93500,
      8.93600,      8.93700,      8.93800,      8.93900,      8.94000,
      8.94100,      8.94200,      8.94300,      8.94400,      8.94500,
      8.94600,      8.94700,      8.94800,      8.94900,      8.95000,
      8.95100,      8.95200,      8.95300,      8.95400,      8.95500,
      8.95600,      8.95700,      8.95800,      8.95900,      8.96000,
      8.96100,      8.96200,      8.96300,      8.96400,      8.96500,
      8.96600,      8.96700,      8.96800,      8.96900,      8.97000,
      8.97100,      8.97200,      8.97300,      8.97400,      8.97500,
      8.97600,      8.97700,      8.97800,      8.97900,      8.98000,
      8.98100,      8.98200,      8.98300,      8.98400,      8.98500,
      8.98600,      8.98700,      8.98800,      8.98900,      8.99000,
      8.99100,      8.99200,      8.99300,      8.99400,      8.99500,
      8.99600,      8.99700,      8.99800,      8.99900,      9.00000,
      9.00100,      9.00200,      9.00300,      9.00400,      9.00500,
      9.00600,      9.00700,      9.00800,      9.00900,      9.01000,
      9.01100,      9.01200,      9.01300,      9.01400,      9.01500,
      9.01600,      9.01700,      9.01800,      9.01900,      9.02000,
      9.02100,      9.02200,      9.02300,      9.02400,      9.02500,
      9.02600,      9.02700,      9.02800,      9.02900,      9.03000,
      9.03100,      9.03200,      9.03300,      9.03400,      9.03500,
      9.03600,      9.03700,      9.03800,      9.03900,      9.04000,
      9.04100,      9.04200,      9.04300,      9.04400,      9.04500,
      9.04600,      9.04700,      9.04800,      9.04900,      9.05000,
      9.05100,      9.05200,      9.05300,      9.05400,      9.05500,
      9.05600,      9.05700,      9.05800,      9.05900,      9.06000,
      9.06100,      9.06200,      9.06300,      9.06400,      9.06500,
      9.06600,      9.06700,      9.06800,      9.06900,      9.07000,
      9.07100,      9.07200,      9.07300,      9.07400,      9.07500,
      9.07600,      9.07700,      9.07800,      9.07900,      9.08000,
      9.08100,      9.08200,      9.08300,      9.08400,      9.08500,
      9.08600,      9.08700,      9.08800,      9.08900,      9.09000,
      9.09100,      9.09200,      9.09300,      9.09400,      9.09500,
      9.09600,      9.09700,      9.09800,      9.09900,      9.10000,
      9.10100,      9.10200,      9.10300,      9.10400,      9.10500,
      9.10600,      9.10700,      9.10800,      9.10900,      9.11000,
      9.11100,      9.11200,      9.11300,      9.11400,      9.11500,
      9.11600,      9.11700,      9.11800,      9.11900,      9.12000,
      9.12100,      9.12200,      9.12300,      9.12400,      9.12500,
      9.12600,      9.12700,      9.12800,      9.12900,      9.13000,
      9.13100,      9.13200,      9.13300,      9.13400,      9.13500,
      9.13600,      9.13700,      9.13800,      9.13900,      9.14000,
      9.14100,      9.14200,      9.14300,      9.14400,      9.14500,
      9.14600,      9.14700,      9.14800,      9.14900,      9.15000,
      9.15100,      9.15200,      9.15300,      9.15400,      9.15500,
      9.15600,      9.15700,      9.15800,      9.15900,      9.16000,
      9.16100,      9.16200,      9.16300,      9.16400,      9.16500,
      9.16600,      9.16700,      9.16800,      9.16900,      9.17000,
      9.17100,      9.17200,      9.17300,      9.17400,      9.17500,
      9.17600,      9.17700,      9.17800,      9.17900,      9.18000,
      9.18100,      9.18200,      9.18300,      9.18400,      9.18500,
      9.18600,      9.18700,      9.18800,      9.18900,      9.19000,
      9.19100,      9.19200,      9.19300,      9.19400,      9.19500,
      9.19600,      9.19700,      9.19800,      9.19900,      9.20000,
      9.20100,      9.20200,      9.20300,      9.20400,      9.20500,
      9.20600,      9.20700,      9.20800,      9.20900,      9.21000,
      9.21100,      9.21200,      9.21300,      9.21400,      9.21500,
      9.21600,      9.21700,      9.21800,      9.21900,      9.22000,
      9.22100,      9.22200,      9.22300,      9.22400,      9.22500,
      9.22600,      9.22700,      9.22800,      9.22900,      9.23000,
      9.23100,      9.23200,      9.23300,      9.23400,      9.23500,
      9.23600,      9.23700,      9.23800,      9.23900,      9.24000,
      9.24100,      9.24200,      9.24300,      9.24400,      9.24500,
      9.24600,      9.24700,      9.24800,      9.24900,      9.25000,
      9.25100,      9.25200,      9.25300,      9.25400,      9.25500,
      9.25600,      9.25700,      9.25800,      9.25900,      9.26000,
      9.26100,      9.26200,      9.26300,      9.26400,      9.26500,
      9.26600,      9.26700,      9.26800,      9.26900,      9.27000,
      9.27100,      9.27200,      9.27300,      9.27400,      9.27500,
      9.27600,      9.27700,      9.27800,      9.27900,      9.28000,
      9.28100,      9.28200,      9.28300,      9.28400,      9.28500,
      9.28600,      9.28700,      9.28800,      9.28900,      9.29000,
      9.29100,      9.29200,      9.29300,      9.29400,      9.29500,
      9.29600,      9.29700,      9.29800,      9.29900,      9.30000,
      9.30100,      9.30200,      9.30300,      9.30400,      9.30500,
      9.30600,      9.30700,      9.30800,      9.30900,      9.31000,
      9.31100,      9.31200,      9.31300,      9.31400,      9.31500,
      9.31600,      9.31700,      9.31800,      9.31900,      9.32000,
      9.32100,      9.32200,      9.32300,      9.32400,      9.32500,
      9.32600,      9.32700,      9.32800,      9.32900,      9.33000,
      9.33100,      9.33200,      9.33300,      9.33400,      9.33500,
      9.33600,      9.33700,      9.33800,      9.33900,      9.34000,
      9.34100,      9.34200,      9.34300,      9.34400,      9.34500,
      9.34600,      9.34700,      9.34800,      9.34900,      9.35000,
      9.35100,      9.35200,      9.35300,      9.35400,      9.35500,
      9.35600,      9.35700,      9.35800,      9.35900,      9.36000,
      9.36100,      9.36200,      9.36300,      9.36400,      9.36500,
      9.36600,      9.36700,      9.36800,      9.36900,      9.37000,
      9.37100,      9.37200,      9.37300,      9.37400,      9.37500,
      9.37600,      9.37700,      9.37800,      9.37900,      9.38000,
      9.38100,      9.38200,      9.38300,      9.38400,      9.38500,
      9.38600,      9.38700,      9.38800,      9.38900,      9.39000,
      9.39100,      9.39200,      9.39300,      9.39400,      9.39500,
      9.39600,      9.39700,      9.39800,      9.39900,      9.40000,
      9.40100,      9.40200,      9.40300,      9.40400,      9.40500,
      9.40600,      9.40700,      9.40800,      9.40900,      9.41000,
      9.41100,      9.41200,      9.41300,      9.41400,      9.41500,
      9.41600,      9.41700,      9.41800,      9.41900,      9.42000,
      9.42100,      9.42200,      9.42300,      9.42400,      9.42500,
      9.42600,      9.42700,      9.42800,      9.42900,      9.43000,
      9.43100,      9.43200,      9.43300,      9.43400,      9.43500,
      9.43600,      9.43700,      9.43800,      9.43900,      9.44000,
      9.44100,      9.44200,      9.44300,      9.44400,      9.44500,
      9.44600,      9.44700,      9.44800,      9.44900,      9.45000,
      9.45100,      9.45200,      9.45300,      9.45400,      9.45500,
      9.45600,      9.45700,      9.45800,      9.45900,      9.46000,
      9.46100,      9.46200,      9.46300,      9.46400,      9.46500,
      9.46600,      9.46700,      9.46800,      9.46900,      9.47000,
      9.47100,      9.47200,      9.47300,      9.47400,      9.47500,
      9.47600,      9.47700,      9.47800,      9.47900,      9.48000,
      9.48100,      9.48200,      9.48300,      9.48400,      9.48500,
      9.48600,      9.48700,      9.48800,      9.48900,      9.49000,
      9.49100,      9.49200,      9.49300,      9.49400,      9.49500,
      9.49600,      9.49700,      9.49800,      9.49900,      9.50000,
      9.50100,      9.50200,      9.50300,      9.50400,      9.50500,
      9.50600,      9.50700,      9.50800,      9.50900,      9.51000,
      9.51100,      9.51200,      9.51300,      9.51400,      9.51500,
      9.51600,      9.51700,      9.51800,      9.51900,      9.52000,
      9.52100,      9.52200,      9.52300,      9.52400,      9.52500,
      9.52600,      9.52700,      9.52800,      9.52900,      9.53000,
      9.53100,      9.53200,      9.53300,      9.53400,      9.53500,
      9.53600,      9.53700,      9.53800,      9.53900,      9.54000,
      9.54100,      9.54200,      9.54300,      9.54400,      9.54500,
      9.54600,      9.54700,      9.54800,      9.54900,      9.55000,
      9.55100,      9.55200,      9.55300,      9.55400,      9.55500,
      9.55600,      9.55700,      9.55800,      9.55900,      9.56000,
      9.56100,      9.56200,      9.56300,      9.56400,      9.56500,
      9.56600,      9.56700,      9.56800,      9.56900,      9.57000,
      9.57100,      9.57200,      9.57300,      9.57400,      9.57500,
      9.57600,      9.57700,      9.57800,      9.57900,      9.58000,
      9.58100,      9.58200,      9.58300,      9.58400,      9.58500,
      9.58600,      9.58700,      9.58800,      9.58900,      9.59000,
      9.59100,      9.59200,      9.59300,      9.59400,      9.59500,
      9.59600,      9.59700,      9.59800,      9.59900,      9.60000,
      9.60100,      9.60200,      9.60300,      9.60400,      9.60500,
      9.60600,      9.60700,      9.60800,      9.60900,      9.61000,
      9.61100,      9.61200,      9.61300,      9.61400,      9.61500,
      9.61600,      9.61700,      9.61800,      9.61900,      9.62000,
      9.62100,      9.62200,      9.62300,      9.62400,      9.62500,
      9.62600,      9.62700,      9.62800,      9.62900,      9.63000,
      9.63100,      9.63200,      9.63300,      9.63400,      9.63500,
      9.63600,      9.63700,      9.63800,      9.63900,      9.64000,
      9.64100,      9.64200,      9.64300,      9.64400,      9.64500,
      9.64600,      9.64700,      9.64800,      9.64900,      9.65000,
      9.65100,      9.65200,      9.65300,      9.65400,      9.65500,
      9.65600,      9.65700,      9.65800,      9.65900,      9.66000,
      9.66100,      9.66200,      9.66300,      9.66400,      9.66500,
      9.66600,      9.66700,      9.66800,      9.66900,      9.67000,
      9.67100,      9.67200,      9.67300,      9.67400,      9.67500,
      9.67600,      9.67700,      9.67800,      9.67900,      9.68000,
      9.68100,      9.68200,      9.68300,      9.68400,      9.68500,
      9.68600,      9.68700,      9.68800,      9.68900,      9.69000,
      9.69100,      9.69200,      9.69300,      9.69400,      9.69500,
      9.69600,      9.69700,      9.69800,      9.69900,      9.70000,
      9.70100,      9.70200,      9.70300,      9.70400,      9.70500,
      9.70600,      9.70700,      9.70800,      9.70900,      9.71000,
      9.71100,      9.71200,      9.71300,      9.71400,      9.71500,
      9.71600,      9.71700,      9.71800,      9.71900,      9.72000,
      9.72100,      9.72200,      9.72300,      9.72400,      9.72500,
      9.72600,      9.72700,      9.72800,      9.72900,      9.73000,
      9.73100,      9.73200,      9.73300,      9.73400,      9.73500,
      9.73600,      9.73700,      9.73800,      9.73900,      9.74000,
      9.74100,      9.74200,      9.74300,      9.74400,      9.74500,
      9.74600,      9.74700,      9.74800,      9.74900,      9.75000,
      9.75100,      9.75200,      9.75300,      9.75400,      9.75500,
      9.75600,      9.75700,      9.75800,      9.75900,      9.76000,
      9.76100,      9.76200,      9.76300,      9.76400,      9.76500,
      9.76600,      9.76700,      9.76800,      9.76900,      9.77000,
      9.77100,      9.77200,      9.77300,      9.77400,      9.77500,
      9.77600,      9.77700,      9.77800,      9.77900,      9.78000,
      9.78100,      9.78200,      9.78300,      9.78400,      9.78500,
      9.78600,      9.78700,      9.78800,      9.78900,      9.79000,
      9.79100,      9.79200,      9.79300,      9.79400,      9.79500,
      9.79600,      9.79700,      9.79800,      9.79900,      9.80000,
      9.80100,      9.80200,      9.80300,      9.80400,      9.80500,
      9.80600,      9.80700,      9.80800,      9.80900,      9.81000,
      9.81100,      9.81200,      9.81300,      9.81400,      9.81500,
      9.81600,      9.81700,      9.81800,      9.81900,      9.82000,
      9.82100,      9.82200,      9.82300,      9.82400,      9.82500,
      9.82600,      9.82700,      9.82800,      9.82900,      9.83000,
      9.83100,      9.83200,      9.83300,      9.83400,      9.83500,
      9.83600,      9.83700,      9.83800,      9.83900,      9.84000,
      9.84100,      9.84200,      9.84300,      9.84400,      9.84500,
      9.84600,      9.84700,      9.84800,      9.84900,      9.85000,
      9.85100,      9.85200,      9.85300,      9.85400,      9.85500,
      9.85600,      9.85700,      9.85800,      9.85900,      9.86000,
      9.86100,      9.86200,      9.86300,      9.86400,      9.86500,
      9.86600,      9.86700,      9.86800,      9.86900,      9.87000,
      9.87100,      9.87200,      9.87300,      9.87400,      9.87500,
      9.87600,      9.87700,      9.87800,      9.87900,      9.88000,
      9.88100,      9.88200,      9.88300,      9.88400,      9.88500,
      9.88600,      9.88700,      9.88800,      9.88900,      9.89000,
      9.89100,      9.89200,      9.89300,      9.89400,      9.89500,
      9.89600,      9.89700,      9.89800,      9.89900,      9.90000,
      9.90100,      9.90200,      9.90300,      9.90400,      9.90500,
      9.90600,      9.90700,      9.90800,      9.90900,      9.91000,
      9.91100,      9.91200,      9.91300,      9.91400,      9.91500,
      9.91600,      9.91700,      9.91800,      9.91900,      9.92000,
      9.92100,      9.92200,      9.92300,      9.92400,      9.92500,
      9.92600,      9.92700,      9.92800,      9.92900,      9.93000,
      9.93100,      9.93200,      9.93300,      9.93400,      9.93500,
      9.93600,      9.93700,      9.93800,      9.93900,      9.94000,
      9.94100,      9.94200,      9.94300,      9.94400,      9.94500,
      9.94600,      9.94700,      9.94800,      9.94900,      9.95000,
      9.95100,      9.95200,      9.95300,      9.95400,      9.95500,
      9.95600,      9.95700,      9.95800,      9.95900,      9.96000,
      9.96100,      9.96200,      9.96300,      9.96400,      9.96500,
      9.96600,      9.96700,      9.96800,      9.96900,      9.97000,
      9.97100,      9.97200,      9.97300,      9.97400,      9.97500,
      9.97600,      9.97700,      9.97800,      9.97900,      9.98000,
      9.98100,      9.98200,      9.98300,      9.98400,      9.98500,
      9.98600,      9.98700,      9.98800,      9.98900,      9.99000,
      9.99100,      9.99200,      9.99300,      9.99400,      9.99500,
      9.99600,      9.99700,      9.99800,      9.99900,      10.0000,
      10.0010,      10.0020,      10.0030,      10.0040,      10.0050,
      10.0060,      10.0070,      10.0080,      10.0090,      10.0100,
      10.0110,      10.0120,      10.0130,      10.0140,      10.0150,
      10.0160,      10.0170,      10.0180,      10.0190,      10.0200,
      10.0210,      10.0220,      10.0230,      10.0240,      10.0250,
      10.0260,      10.0270,      10.0280,      10.0290,      10.0300,
      10.0310,      10.0320,      10.0330,      10.0340,      10.0350,
      10.0360,      10.0370,      10.0380,      10.0390,      10.0400,
      10.0410,      10.0420,      10.0430,      10.0440,      10.0450,
      10.0460,      10.0470,      10.0480,      10.0490,      10.0500,
      10.0510,      10.0520,      10.0530,      10.0540,      10.0550,
      10.0560,      10.0570,      10.0580,      10.0590,      10.0600,
      10.0610,      10.0620,      10.0630,      10.0640,      10.0650,
      10.0660,      10.0670,      10.0680,      10.0690,      10.0700,
      10.0710,      10.0720,      10.0730,      10.0740,      10.0750,
      10.0760,      10.0770,      10.0780,      10.0790,      10.0800,
      10.0810,      10.0820,      10.0830,      10.0840,      10.0850,
      10.0860,      10.0870,      10.0880,      10.0890,      10.0900,
      10.0910,      10.0920,      10.0930,      10.0940,      10.0950,
      10.0960,      10.0970,      10.0980,      10.0990,      10.1000,
      10.1010,      10.1020,      10.1030,      10.1040,      10.1050,
      10.1060,      10.1070,      10.1080,      10.1090,      10.1100,
      10.1110,      10.1120,      10.1130,      10.1140,      10.1150,
      10.1160,      10.1170,      10.1180,      10.1190,      10.1200,
      10.1210,      10.1220,      10.1230,      10.1240,      10.1250,
      10.1260,      10.1270,      10.1280,      10.1290,      10.1300,
      10.1310,      10.1320,      10.1330,      10.1340,      10.1350,
      10.1360,      10.1370,      10.1380,      10.1390,      10.1400,
      10.1410,      10.1420,      10.1430,      10.1440,      10.1450,
      10.1460,      10.1470,      10.1480,      10.1490,      10.1500,
      10.1510,      10.1520,      10.1530,      10.1540,      10.1550,
      10.1560,      10.1570,      10.1580,      10.1590,      10.1600,
      10.1610,      10.1620,      10.1630,      10.1640,      10.1650,
      10.1660,      10.1670,      10.1680,      10.1690,      10.1700,
      10.1710,      10.1720,      10.1730,      10.1740,      10.1750,
      10.1760,      10.1770,      10.1780,      10.1790,      10.1800,
      10.1810,      10.1820,      10.1830,      10.1840,      10.1850,
      10.1860,      10.1870,      10.1880,      10.1890,      10.1900,
      10.1910,      10.1920,      10.1930,      10.1940,      10.1950,
      10.1960,      10.1970,      10.1980,      10.1990,      10.2000,
      10.2010,      10.2020,      10.2030,      10.2040,      10.2050,
      10.2060,      10.2070,      10.2080,      10.2090,      10.2100,
      10.2110,      10.2120,      10.2130,      10.2140,      10.2150,
      10.2160,      10.2170,      10.2180,      10.2190,      10.2200,
      10.2210,      10.2220,      10.2230,      10.2240,      10.2250,
      10.2260,      10.2270,      10.2280,      10.2290,      10.2300,
      10.2310,      10.2320,      10.2330,      10.2340,      10.2350,
      10.2360,      10.2370,      10.2380,      10.2390,      10.2400,
      10.2410,      10.2420,      10.2430,      10.2440,      10.2450,
      10.2460,      10.2470,      10.2480,      10.2490,      10.2500,
      10.2510,      10.2520,      10.2530,      10.2540,      10.2550,
      10.2560,      10.2570,      10.2580,      10.2590,      10.2600,
      10.2610,      10.2620,      10.2630,      10.2640,      10.2650,
      10.2660,      10.2670,      10.2680,      10.2690,      10.2700,
      10.2710,      10.2720,      10.2730,      10.2740,      10.2750,
      10.2760,      10.2770,      10.2780,      10.2790,      10.2800,
      10.2810,      10.2820,      10.2830,      10.2840,      10.2850,
      10.2860,      10.2870,      10.2880,      10.2890,      10.2900,
      10.2910,      10.2920,      10.2930,      10.2940,      10.2950,
      10.2960,      10.2970,      10.2980,      10.2990,      10.3000,
      10.3010,      10.3020,      10.3030,      10.3040,      10.3050,
      10.3060,      10.3070,      10.3080,      10.3090,      10.3100,
      10.3110,      10.3120,      10.3130,      10.3140,      10.3150,
      10.3160,      10.3170,      10.3180,      10.3190,      10.3200,
      10.3210,      10.3220,      10.3230,      10.3240,      10.3250,
      10.3260,      10.3270,      10.3280,      10.3290,      10.3300,
      10.3310,      10.3320,      10.3330,      10.3340,      10.3350,
      10.3360,      10.3370,      10.3380,      10.3390,      10.3400,
      10.3410,      10.3420,      10.3430,      10.3440,      10.3450,
      10.3460,      10.3470,      10.3480,      10.3490,      10.3500,
      10.3510,      10.3520,      10.3530,      10.3540,      10.3550,
      10.3560,      10.3570,      10.3580,      10.3590,      10.3600,
      10.3610,      10.3620,      10.3630,      10.3640,      10.3650,
      10.3660,      10.3670,      10.3680,      10.3690,      10.3700,
      10.3710,      10.3720,      10.3730,      10.3740,      10.3750,
      10.3760,      10.3770,      10.3780,      10.3790,      10.3800,
      10.3810,      10.3820,      10.3830,      10.3840,      10.3850,
      10.3860,      10.3870,      10.3880,      10.3890,      10.3900,
      10.3910,      10.3920,      10.3930,      10.3940,      10.3950,
      10.3960,      10.3970,      10.3980,      10.3990,      10.4000,
      10.4010,      10.4020,      10.4030,      10.4040,      10.4050,
      10.4060,      10.4070,      10.4080,      10.4090,      10.4100,
      10.4110,      10.4120,      10.4130,      10.4140,      10.4150,
      10.4160,      10.4170,      10.4180,      10.4190,      10.4200,
      10.4210,      10.4220,      10.4230,      10.4240,      10.4250,
      10.4260,      10.4270,      10.4280,      10.4290,      10.4300,
      10.4310,      10.4320,      10.4330,      10.4340,      10.4350,
      10.4360,      10.4370,      10.4380,      10.4390,      10.4400,
      10.4410,      10.4420,      10.4430,      10.4440,      10.4450,
      10.4460,      10.4470,      10.4480,      10.4490,      10.4500,
      10.4510,      10.4520,      10.4530,      10.4540,      10.4550,
      10.4560,      10.4570,      10.4580,      10.4590,      10.4600,
      10.4610,      10.4620,      10.4630,      10.4640,      10.4650,
      10.4660,      10.4670,      10.4680,      10.4690,      10.4700,
      10.4710,      10.4720,      10.4730,      10.4740,      10.4750,
      10.4760,      10.4770,      10.4780,      10.4790,      10.4800,
      10.4810,      10.4820,      10.4830,      10.4840,      10.4850,
      10.4860,      10.4870,      10.4880,      10.4890,      10.4900,
      10.4910,      10.4920,      10.4930,      10.4940,      10.4950,
      10.4960,      10.4970,      10.4980,      10.4990,      10.5000,
      10.5010,      10.5020,      10.5030,      10.5040,      10.5050,
      10.5060,      10.5070,      10.5080,      10.5090,      10.5100,
      10.5110,      10.5120,      10.5130,      10.5140,      10.5150,
      10.5160,      10.5170,      10.5180,      10.5190,      10.5200,
      10.5210,      10.5220,      10.5230,      10.5240,      10.5250,
      10.5260,      10.5270,      10.5280,      10.5290,      10.5300,
      10.5310,      10.5320,      10.5330,      10.5340,      10.5350,
      10.5360,      10.5370,      10.5380,      10.5390,      10.5400,
      10.5410,      10.5420,      10.5430,      10.5440,      10.5450,
      10.5460,      10.5470,      10.5480,      10.5490,      10.5500,
      10.5510,      10.5520,      10.5530,      10.5540,      10.5550,
      10.5560,      10.5570,      10.5580,      10.5590,      10.5600,
      10.5610,      10.5620,      10.5630,      10.5640,      10.5650,
      10.5660,      10.5670,      10.5680,      10.5690,      10.5700,
      10.5710,      10.5720,      10.5730,      10.5740,      10.5750,
      10.5760,      10.5770,      10.5780,      10.5790,      10.5800,
      10.5810,      10.5820,      10.5830,      10.5840,      10.5850,
      10.5860,      10.5870,      10.5880,      10.5890,      10.5900,
      10.5910,      10.5920,      10.5930,      10.5940,      10.5950,
      10.5960,      10.5970,      10.5980,      10.5990,      10.6000,
      10.6010,      10.6020,      10.6030,      10.6040,      10.6050,
      10.6060,      10.6070,      10.6080,      10.6090,      10.6100,
      10.6110,      10.6120,      10.6130,      10.6140,      10.6150,
      10.6160,      10.6170,      10.6180,      10.6190,      10.6200,
      10.6210,      10.6220,      10.6230,      10.6240,      10.6250,
      10.6260,      10.6270,      10.6280,      10.6290,      10.6300,
      10.6310,      10.6320,      10.6330,      10.6340,      10.6350,
      10.6360,      10.6370,      10.6380,      10.6390,      10.6400,
      10.6410,      10.6420,      10.6430,      10.6440,      10.6450,
      10.6460,      10.6470,      10.6480,      10.6490,      10.6500,
      10.6510,      10.6520,      10.6530,      10.6540,      10.6550,
      10.6560,      10.6570,      10.6580,      10.6590,      10.6600,
      10.6610,      10.6620,      10.6630,      10.6640,      10.6650,
      10.6660,      10.6670,      10.6680,      10.6690,      10.6700,
      10.6710,      10.6720,      10.6730,      10.6740,      10.6750,
      10.6760,      10.6770,      10.6780,      10.6790,      10.6800,
      10.6810,      10.6820,      10.6830,      10.6840,      10.6850,
      10.6860,      10.6870,      10.6880,      10.6890,      10.6900,
      10.6910,      10.6920,      10.6930,      10.6940,      10.6950,
      10.6960,      10.6970,      10.6980,      10.6990,      10.7000,
      10.7010,      10.7020,      10.7030,      10.7040,      10.7050,
      10.7060,      10.7070,      10.7080,      10.7090,      10.7100,
      10.7110,      10.7120,      10.7130,      10.7140,      10.7150,
      10.7160,      10.7170,      10.7180,      10.7190,      10.7200,
      10.7210,      10.7220,      10.7230,      10.7240,      10.7250,
      10.7260,      10.7270,      10.7280,      10.7290,      10.7300,
      10.7310,      10.7320,      10.7330,      10.7340,      10.7350,
      10.7360,      10.7370,      10.7380,      10.7390,      10.7400,
      10.7410,      10.7420,      10.7430,      10.7440,      10.7450,
      10.7460,      10.7470,      10.7480,      10.7490,      10.7500,
      10.7510,      10.7520,      10.7530,      10.7540,      10.7550,
      10.7560,      10.7570,      10.7580,      10.7590,      10.7600,
      10.7610,      10.7620,      10.7630,      10.7640,      10.7650,
      10.7660,      10.7670,      10.7680,      10.7690,      10.7700,
      10.7710,      10.7720,      10.7730,      10.7740,      10.7750,
      10.7760,      10.7770,      10.7780,      10.7790,      10.7800,
      10.7810,      10.7820,      10.7830,      10.7840,      10.7850,
      10.7860,      10.7870,      10.7880,      10.7890,      10.7900,
      10.7910,      10.7920,      10.7930,      10.7940,      10.7950,
      10.7960,      10.7970,      10.7980,      10.7990,      10.8000,
      10.8010,      10.8020,      10.8030,      10.8040,      10.8050,
      10.8060,      10.8070,      10.8080,      10.8090,      10.8100,
      10.8110,      10.8120,      10.8130,      10.8140,      10.8150,
      10.8160,      10.8170,      10.8180,      10.8190,      10.8200,
      10.8210,      10.8220,      10.8230,      10.8240,      10.8250,
      10.8260,      10.8270,      10.8280,      10.8290,      10.8300,
      10.8310,      10.8320,      10.8330,      10.8340,      10.8350,
      10.8360,      10.8370,      10.8380,      10.8390,      10.8400,
      10.8410,      10.8420,      10.8430,      10.8440,      10.8450,
      10.8460,      10.8470,      10.8480,      10.8490,      10.8500,
      10.8510,      10.8520,      10.8530,      10.8540,      10.8550,
      10.8560,      10.8570,      10.8580,      10.8590,      10.8600,
      10.8610,      10.8620,      10.8630,      10.8640,      10.8650,
      10.8660,      10.8670,      10.8680,      10.8690,      10.8700,
      10.8710,      10.8720,      10.8730,      10.8740,      10.8750,
      10.8760,      10.8770,      10.8780,      10.8790,      10.8800,
      10.8810,      10.8820,      10.8830,      10.8840,      10.8850,
      10.8860,      10.8870,      10.8880,      10.8890,      10.8900,
      10.8910,      10.8920,      10.8930,      10.8940,      10.8950,
      10.8960,      10.8970,      10.8980,      10.8990,      10.9000,
      10.9010,      10.9020,      10.9030,      10.9040,      10.9050,
      10.9060,      10.9070,      10.9080,      10.9090,      10.9100,
      10.9110,      10.9120,      10.9130,      10.9140,      10.9150,
      10.9160,      10.9170,      10.9180,      10.9190,      10.9200,
      10.9210,      10.9220,      10.9230,      10.9240,      10.9250,
      10.9260,      10.9270,      10.9280,      10.9290,      10.9300,
      10.9310,      10.9320,      10.9330,      10.9340,      10.9350,
      10.9360,      10.9370,      10.9380,      10.9390,      10.9400,
      10.9410,      10.9420,      10.9430,      10.9440,      10.9450,
      10.9460,      10.9470,      10.9480,      10.9490,      10.9500,
      10.9510,      10.9520,      10.9530,      10.9540,      10.9550,
      10.9560,      10.9570,      10.9580,      10.9590,      10.9600,
      10.9610,      10.9620,      10.9630,      10.9640,      10.9650,
      10.9660,      10.9670,      10.9680,      10.9690,      10.9700,
      10.9710,      10.9720,      10.9730,      10.9740,      10.9750,
      10.9760,      10.9770,      10.9780,      10.9790,      10.9800,
      10.9810,      10.9820,      10.9830,      10.9840,      10.9850,
      10.9860,      10.9870,      10.9880,      10.9890,      10.9900,
      10.9910,      10.9920,      10.9930,      10.9940,      10.9950,
      10.9960,      10.9970,      10.9980,      10.9990,      11.0000,
      11.0010,      11.0020,      11.0030,      11.0040,      11.0050,
      11.0060,      11.0070,      11.0080,      11.0090,      11.0100,
      11.0110,      11.0120,      11.0130,      11.0140,      11.0150,
      11.0160,      11.0170,      11.0180,      11.0190,      11.0200,
      11.0210,      11.0220,      11.0230,      11.0240,      11.0250,
      11.0260,      11.0270,      11.0280,      11.0290,      11.0300,
      11.0310,      11.0320,      11.0330,      11.0340,      11.0350,
      11.0360,      11.0370,      11.0380,      11.0390,      11.0400,
      11.0410,      11.0420,      11.0430,      11.0440,      11.0450,
      11.0460,      11.0470,      11.0480,      11.0490,      11.0500,
      11.0510,      11.0520,      11.0530,      11.0540,      11.0550,
      11.0560,      11.0570,      11.0580,      11.0590,      11.0600,
      11.0610,      11.0620,      11.0630,      11.0640,      11.0650,
      11.0660,      11.0670,      11.0680,      11.0690,      11.0700,
      11.0710,      11.0720,      11.0730,      11.0740,      11.0750,
      11.0760,      11.0770,      11.0780,      11.0790,      11.0800,
      11.0810,      11.0820,      11.0830,      11.0840,      11.0850,
      11.0860,      11.0870,      11.0880,      11.0890,      11.0900,
      11.0910,      11.0920,      11.0930,      11.0940,      11.0950,
      11.0960,      11.0970,      11.0980,      11.0990,      11.1000,
      11.1010,      11.1020,      11.1030,      11.1040,      11.1050,
      11.1060,      11.1070,      11.1080,      11.1090,      11.1100,
      11.1110,      11.1120,      11.1130,      11.1140,      11.1150,
      11.1160,      11.1170,      11.1180,      11.1190,      11.1200,
      11.1210,      11.1220,      11.1230,      11.1240,      11.1250,
      11.1260,      11.1270,      11.1280,      11.1290,      11.1300,
      11.1310,      11.1320,      11.1330,      11.1340,      11.1350,
      11.1360,      11.1370,      11.1380,      11.1390,      11.1400,
      11.1410,      11.1420,      11.1430,      11.1440,      11.1450,
      11.1460,      11.1470,      11.1480,      11.1490,      11.1500,
      11.1510,      11.1520,      11.1530,      11.1540,      11.1550,
      11.1560,      11.1570,      11.1580,      11.1590,      11.1600,
      11.1610,      11.1620,      11.1630,      11.1640,      11.1650,
      11.1660,      11.1670,      11.1680,      11.1690,      11.1700,
      11.1710,      11.1720,      11.1730,      11.1740,      11.1750,
      11.1760,      11.1770,      11.1780,      11.1790,      11.1800,
      11.1810,      11.1820,      11.1830,      11.1840,      11.1850,
      11.1860,      11.1870,      11.1880,      11.1890,      11.1900,
      11.1910,      11.1920,      11.1930,      11.1940,      11.1950,
      11.1960,      11.1970,      11.1980,      11.1990,      11.2000,
      11.2010,      11.2020,      11.2030,      11.2040,      11.2050,
      11.2060,      11.2070,      11.2080,      11.2090,      11.2100,
      11.2110,      11.2120,      11.2130,      11.2140,      11.2150,
      11.2160,      11.2170,      11.2180,      11.2190,      11.2200,
      11.2210,      11.2220,      11.2230,      11.2240,      11.2250,
      11.2260,      11.2270,      11.2280,      11.2290,      11.2300,
      11.2310,      11.2320,      11.2330,      11.2340,      11.2350,
      11.2360,      11.2370,      11.2380,      11.2390,      11.2400,
      11.2410,      11.2420,      11.2430,      11.2440,      11.2450,
      11.2460,      11.2470,      11.2480,      11.2490,      11.2500,
      11.2510,      11.2520,      11.2530,      11.2540,      11.2550,
      11.2560,      11.2570,      11.2580,      11.2590,      11.2600,
      11.2610,      11.2620,      11.2630,      11.2640,      11.2650,
      11.2660,      11.2670,      11.2680,      11.2690,      11.2700,
      11.2710,      11.2720,      11.2730,      11.2740,      11.2750,
      11.2760,      11.2770,      11.2780,      11.2790,      11.2800,
      11.2810,      11.2820,      11.2830,      11.2840,      11.2850,
      11.2860,      11.2870,      11.2880,      11.2890,      11.2900,
      11.2910,      11.2920,      11.2930,      11.2940,      11.2950,
      11.2960,      11.2970,      11.2980,      11.2990,      11.3000,
      11.3010,      11.3020,      11.3030,      11.3040,      11.3050,
      11.3060,      11.3070,      11.3080,      11.3090,      11.3100,
      11.3110,      11.3120,      11.3130,      11.3140,      11.3150,
      11.3160,      11.3170,      11.3180,      11.3190,      11.3200,
      11.3210,      11.3220,      11.3230,      11.3240,      11.3250,
      11.3260,      11.3270,      11.3280,      11.3290,      11.3300,
      11.3310,      11.3320,      11.3330,      11.3340,      11.3350,
      11.3360,      11.3370,      11.3380,      11.3390,      11.3400,
      11.3410,      11.3420,      11.3430,      11.3440,      11.3450,
      11.3460,      11.3470,      11.3480,      11.3490,      11.3500,
      11.3510,      11.3520,      11.3530,      11.3540,      11.3550,
      11.3560,      11.3570,      11.3580,      11.3590,      11.3600,
      11.3610,      11.3620,      11.3630,      11.3640,      11.3650,
      11.3660,      11.3670,      11.3680,      11.3690,      11.3700,
      11.3710,      11.3720,      11.3730,      11.3740,      11.3750,
      11.3760,      11.3770,      11.3780,      11.3790,      11.3800,
      11.3810,      11.3820,      11.3830,      11.3840,      11.3850,
      11.3860,      11.3870,      11.3880,      11.3890,      11.3900,
      11.3910,      11.3920,      11.3930,      11.3940,      11.3950,
      11.3960,      11.3970,      11.3980,      11.3990,      11.4000,
      11.4010,      11.4020,      11.4030,      11.4040,      11.4050,
      11.4060,      11.4070,      11.4080,      11.4090,      11.4100,
      11.4110,      11.4120,      11.4130,      11.4140,      11.4150,
      11.4160,      11.4170,      11.4180,      11.4190,      11.4200,
      11.4210,      11.4220,      11.4230,      11.4240,      11.4250,
      11.4260,      11.4270,      11.4280,      11.4290,      11.4300,
      11.4310,      11.4320,      11.4330,      11.4340,      11.4350,
      11.4360,      11.4370,      11.4380,      11.4390,      11.4400,
      11.4410,      11.4420,      11.4430,      11.4440,      11.4450,
      11.4460,      11.4470,      11.4480,      11.4490,      11.4500,
      11.4510,      11.4520,      11.4530,      11.4540,      11.4550,
      11.4560,      11.4570,      11.4580,      11.4590,      11.4600,
      11.4610,      11.4620,      11.4630,      11.4640,      11.4650,
      11.4660,      11.4670,      11.4680,      11.4690,      11.4700,
      11.4710,      11.4720,      11.4730,      11.4740,      11.4750,
      11.4760,      11.4770,      11.4780,      11.4790,      11.4800,
      11.4810,      11.4820,      11.4830,      11.4840,      11.4850,
      11.4860,      11.4870,      11.4880,      11.4890,      11.4900,
      11.4910,      11.4920,      11.4930,      11.4940,      11.4950,
      11.4960,      11.4970,      11.4980,      11.4990,      11.5000,
      11.5010,      11.5020,      11.5030,      11.5040,      11.5050,
      11.5060,      11.5070,      11.5080,      11.5090,      11.5100,
      11.5110,      11.5120,      11.5130,      11.5140,      11.5150,
      11.5160,      11.5170,      11.5180,      11.5190,      11.5200,
      11.5210,      11.5220,      11.5230,      11.5240,      11.5250,
      11.5260,      11.5270,      11.5280,      11.5290,      11.5300,
      11.5310,      11.5320,      11.5330,      11.5340,      11.5350,
      11.5360,      11.5370,      11.5380,      11.5390,      11.5400,
      11.5410,      11.5420,      11.5430,      11.5440,      11.5450,
      11.5460,      11.5470,      11.5480,      11.5490,      11.5500,
      11.5510,      11.5520,      11.5530,      11.5540,      11.5550,
      11.5560,      11.5570,      11.5580,      11.5590,      11.5600,
      11.5610,      11.5620,      11.5630,      11.5640,      11.5650,
      11.5660,      11.5670,      11.5680,      11.5690,      11.5700,
      11.5710,      11.5720,      11.5730,      11.5740,      11.5750,
      11.5760,      11.5770,      11.5780,      11.5790,      11.5800,
      11.5810,      11.5820,      11.5830,      11.5840,      11.5850,
      11.5860,      11.5870,      11.5880,      11.5890,      11.5900,
      11.5910,      11.5920,      11.5930,      11.5940,      11.5950,
      11.5960,      11.5970,      11.5980,      11.5990,      11.6000,
      11.6010,      11.6020,      11.6030,      11.6040,      11.6050,
      11.6060,      11.6070,      11.6080,      11.6090,      11.6100,
      11.6110,      11.6120,      11.6130,      11.6140,      11.6150,
      11.6160,      11.6170,      11.6180,      11.6190,      11.6200,
      11.6210,      11.6220,      11.6230,      11.6240,      11.6250,
      11.6260,      11.6270,      11.6280,      11.6290,      11.6300,
      11.6310,      11.6320,      11.6330,      11.6340,      11.6350,
      11.6360,      11.6370,      11.6380,      11.6390,      11.6400,
      11.6410,      11.6420,      11.6430,      11.6440,      11.6450,
      11.6460,      11.6470,      11.6480,      11.6490,      11.6500,
      11.6510,      11.6520,      11.6530,      11.6540,      11.6550,
      11.6560,      11.6570,      11.6580,      11.6590,      11.6600,
      11.6610,      11.6620,      11.6630,      11.6640,      11.6650,
      11.6660,      11.6670,      11.6680,      11.6690,      11.6700,
      11.6710,      11.6720,      11.6730,      11.6740,      11.6750,
      11.6760,      11.6770,      11.6780,      11.6790,      11.6800,
      11.6810,      11.6820,      11.6830,      11.6840,      11.6850,
      11.6860,      11.6870,      11.6880,      11.6890,      11.6900,
      11.6910,      11.6920,      11.6930,      11.6940,      11.6950,
      11.6960,      11.6970,      11.6980,      11.6990,      11.7000,
      11.7010,      11.7020,      11.7030,      11.7040,      11.7050,
      11.7060,      11.7070,      11.7080,      11.7090,      11.7100,
      11.7110,      11.7120,      11.7130,      11.7140,      11.7150,
      11.7160,      11.7170,      11.7180,      11.7190,      11.7200,
      11.7210,      11.7220,      11.7230,      11.7240,      11.7250,
      11.7260,      11.7270,      11.7280,      11.7290,      11.7300,
      11.7310,      11.7320,      11.7330,      11.7340,      11.7350,
      11.7360,      11.7370,      11.7380,      11.7390,      11.7400,
      11.7410,      11.7420,      11.7430,      11.7440,      11.7450,
      11.7460,      11.7470,      11.7480,      11.7490,      11.7500,
      11.7510,      11.7520,      11.7530,      11.7540,      11.7550,
      11.7560,      11.7570,      11.7580,      11.7590,      11.7600,
      11.7610,      11.7620,      11.7630,      11.7640,      11.7650,
      11.7660,      11.7670,      11.7680,      11.7690,      11.7700,
      11.7710,      11.7720,      11.7730,      11.7740,      11.7750,
      11.7760,      11.7770,      11.7780,      11.7790,      11.7800,
      11.7810,      11.7820,      11.7830,      11.7840,      11.7850,
      11.7860,      11.7870,      11.7880,      11.7890,      11.7900,
      11.7910,      11.7920,      11.7930,      11.7940,      11.7950,
      11.7960,      11.7970,      11.7980,      11.7990,      11.8000,
      11.8010,      11.8020,      11.8030,      11.8040,      11.8050,
      11.8060,      11.8070,      11.8080,      11.8090,      11.8100,
      11.8110,      11.8120,      11.8130,      11.8140,      11.8150,
      11.8160,      11.8170,      11.8180,      11.8190,      11.8200,
      11.8210,      11.8220,      11.8230,      11.8240,      11.8250,
      11.8260,      11.8270,      11.8280,      11.8290,      11.8300,
      11.8310,      11.8320,      11.8330,      11.8340,      11.8350,
      11.8360,      11.8370,      11.8380,      11.8390,      11.8400,
      11.8410,      11.8420,      11.8430,      11.8440,      11.8450,
      11.8460,      11.8470,      11.8480,      11.8490,      11.8500,
      11.8510,      11.8520,      11.8530,      11.8540,      11.8550,
      11.8560,      11.8570,      11.8580,      11.8590,      11.8600,
      11.8610,      11.8620,      11.8630,      11.8640,      11.8650,
      11.8660,      11.8670,      11.8680,      11.8690,      11.8700,
      11.8710,      11.8720,      11.8730,      11.8740,      11.8750,
      11.8760,      11.8770,      11.8780,      11.8790,      11.8800,
      11.8810,      11.8820,      11.8830,      11.8840,      11.8850,
      11.8860,      11.8870,      11.8880,      11.8890,      11.8900,
      11.8910,      11.8920,      11.8930,      11.8940,      11.8950,
      11.8960,      11.8970,      11.8980,      11.8990,      11.9000,
      11.9010,      11.9020,      11.9030,      11.9040,      11.9050,
      11.9060,      11.9070,      11.9080,      11.9090,      11.9100,
      11.9110,      11.9120,      11.9130,      11.9140,      11.9150,
      11.9160,      11.9170,      11.9180,      11.9190,      11.9200,
      11.9210,      11.9220,      11.9230,      11.9240,      11.9250,
      11.9260,      11.9270,      11.9280,      11.9290,      11.9300,
      11.9310,      11.9320,      11.9330,      11.9340,      11.9350,
      11.9360,      11.9370,      11.9380,      11.9390,      11.9400,
      11.9410,      11.9420,      11.9430,      11.9440,      11.9450,
      11.9460,      11.9470,      11.9480,      11.9490,      11.9500,
      11.9510,      11.9520,      11.9530,      11.9540,      11.9550,
      11.9560,      11.9570,      11.9580,      11.9590,      11.9600,
      11.9610,      11.9620,      11.9630,      11.9640,      11.9650,
      11.9660,      11.9670,      11.9680,      11.9690,      11.9700,
      11.9710,      11.9720,      11.9730,      11.9740,      11.9750,
      11.9760,      11.9770,      11.9780,      11.9790,      11.9800,
      11.9810,      11.9820,      11.9830,      11.9840,      11.9850,
      11.9860,      11.9870,      11.9880,      11.9890,      11.9900,
      11.9910,      11.9920,      11.9930,      11.9940,      11.9950,
      11.9960,      11.9970,      11.9980,      11.9990,      12.0000,
      12.0010,      12.0020,      12.0030,      12.0040,      12.0050,
      12.0060,      12.0070,      12.0080,      12.0090,      12.0100,
      12.0110,      12.0120,      12.0130,      12.0140,      12.0150,
      12.0160,      12.0170,      12.0180,      12.0190,      12.0200,
      12.0210,      12.0220,      12.0230,      12.0240,      12.0250,
      12.0260,      12.0270,      12.0280,      12.0290,      12.0300,
      12.0310,      12.0320,      12.0330,      12.0340,      12.0350,
      12.0360,      12.0370,      12.0380,      12.0390,      12.0400,
      12.0410,      12.0420,      12.0430,      12.0440,      12.0450,
      12.0460,      12.0470,      12.0480,      12.0490,      12.0500,
      12.0510,      12.0520,      12.0530,      12.0540,      12.0550,
      12.0560,      12.0570,      12.0580,      12.0590,      12.0600,
      12.0610,      12.0620,      12.0630,      12.0640,      12.0650,
      12.0660,      12.0670,      12.0680,      12.0690,      12.0700,
      12.0710,      12.0720,      12.0730,      12.0740,      12.0750,
      12.0760,      12.0770,      12.0780,      12.0790,      12.0800,
      12.0810,      12.0820,      12.0830,      12.0840,      12.0850,
      12.0860,      12.0870,      12.0880,      12.0890,      12.0900,
      12.0910,      12.0920,      12.0930,      12.0940,      12.0950,
      12.0960,      12.0970,      12.0980,      12.0990,      12.1000,
      12.1010,      12.1020,      12.1030,      12.1040,      12.1050,
      12.1060,      12.1070,      12.1080,      12.1090,      12.1100,
      12.1110,      12.1120,      12.1130,      12.1140,      12.1150,
      12.1160,      12.1170,      12.1180,      12.1190,      12.1200,
      12.1210,      12.1220,      12.1230,      12.1240,      12.1250,
      12.1260,      12.1270,      12.1280,      12.1290,      12.1300,
      12.1310,      12.1320,      12.1330,      12.1340,      12.1350,
      12.1360,      12.1370,      12.1380,      12.1390,      12.1400,
      12.1410,      12.1420,      12.1430,      12.1440,      12.1450,
      12.1460,      12.1470,      12.1480,      12.1490,      12.1500,
      12.1510,      12.1520,      12.1530,      12.1540,      12.1550,
      12.1560,      12.1570,      12.1580,      12.1590,      12.1600,
      12.1610,      12.1620,      12.1630,      12.1640,      12.1650,
      12.1660,      12.1670,      12.1680,      12.1690,      12.1700,
      12.1710,      12.1720,      12.1730,      12.1740,      12.1750,
      12.1760,      12.1770,      12.1780,      12.1790,      12.1800,
      12.1810,      12.1820,      12.1830,      12.1840,      12.1850,
      12.1860,      12.1870,      12.1880,      12.1890,      12.1900,
      12.1910,      12.1920,      12.1930,      12.1940,      12.1950,
      12.1960,      12.1970,      12.1980,      12.1990,      12.2000,
      12.2010,      12.2020,      12.2030,      12.2040,      12.2050,
      12.2060,      12.2070,      12.2080,      12.2090,      12.2100,
      12.2110,      12.2120,      12.2130,      12.2140,      12.2150,
      12.2160,      12.2170,      12.2180,      12.2190,      12.2200,
      12.2210,      12.2220,      12.2230,      12.2240,      12.2250,
      12.2260,      12.2270,      12.2280,      12.2290,      12.2300,
      12.2310,      12.2320,      12.2330,      12.2340,      12.2350,
      12.2360,      12.2370,      12.2380,      12.2390,      12.2400,
      12.2410,      12.2420,      12.2430,      12.2440,      12.2450,
      12.2460,      12.2470,      12.2480,      12.2490,      12.2500,
      12.2510,      12.2520,      12.2530,      12.2540,      12.2550,
      12.2560,      12.2570,      12.2580,      12.2590,      12.2600,
      12.2610,      12.2620,      12.2630,      12.2640,      12.2650,
      12.2660,      12.2670,      12.2680,      12.2690,      12.2700,
      12.2710,      12.2720,      12.2730,      12.2740,      12.2750,
      12.2760,      12.2770,      12.2780,      12.2790,      12.2800,
      12.2810,      12.2820,      12.2830,      12.2840,      12.2850,
      12.2860,      12.2870,      12.2880,      12.2890,      12.2900,
      12.2910,      12.2920,      12.2930,      12.2940,      12.2950,
      12.2960,      12.2970,      12.2980,      12.2990,      12.3000,
      12.3010,      12.3020,      12.3030,      12.3040,      12.3050,
      12.3060,      12.3070,      12.3080,      12.3090,      12.3100,
      12.3110,      12.3120,      12.3130,      12.3140,      12.3150,
      12.3160,      12.3170,      12.3180,      12.3190,      12.3200,
      12.3210,      12.3220,      12.3230,      12.3240,      12.3250,
      12.3260,      12.3270,      12.3280,      12.3290,      12.3300,
      12.3310,      12.3320,      12.3330,      12.3340,      12.3350,
      12.3360,      12.3370,      12.3380,      12.3390,      12.3400,
      12.3410,      12.3420,      12.3430,      12.3440,      12.3450,
      12.3460,      12.3470,      12.3480,      12.3490,      12.3500,
      12.3510,      12.3520,      12.3530,      12.3540,      12.3550,
      12.3560,      12.3570,      12.3580,      12.3590,      12.3600,
      12.3610,      12.3620,      12.3630,      12.3640,      12.3650,
      12.3660,      12.3670,      12.3680,      12.3690,      12.3700,
      12.3710,      12.3720,      12.3730,      12.3740,      12.3750,
      12.3760,      12.3770,      12.3780,      12.3790,      12.3800,
      12.3810,      12.3820,      12.3830,      12.3840,      12.3850,
      12.3860,      12.3870,      12.3880,      12.3890,      12.3900,
      12.3910,      12.3920,      12.3930,      12.3940,      12.3950,
      12.3960,      12.3970,      12.3980,      12.3990,      12.4000,
      12.4010,      12.4020,      12.4030,      12.4040,      12.4050,
      12.4060,      12.4070,      12.4080,      12.4090,      12.4100,
      12.4110,      12.4120,      12.4130,      12.4140,      12.4150,
      12.4160,      12.4170,      12.4180,      12.4190,      12.4200,
      12.4210,      12.4220,      12.4230,      12.4240,      12.4250,
      12.4260,      12.4270,      12.4280,      12.4290,      12.4300,
      12.4310,      12.4320,      12.4330,      12.4340,      12.4350,
      12.4360,      12.4370,      12.4380,      12.4390,      12.4400,
      12.4410,      12.4420,      12.4430,      12.4440,      12.4450,
      12.4460,      12.4470,      12.4480,      12.4490,      12.4500,
      12.4510,      12.4520,      12.4530,      12.4540,      12.4550,
      12.4560,      12.4570,      12.4580,      12.4590,      12.4600,
      12.4610,      12.4620,      12.4630,      12.4640,      12.4650,
      12.4660,      12.4670,      12.4680,      12.4690,      12.4700,
      12.4710,      12.4720,      12.4730,      12.4740,      12.4750,
      12.4760,      12.4770,      12.4780,      12.4790,      12.4800,
      12.4810,      12.4820,      12.4830,      12.4840,      12.4850,
      12.4860,      12.4870,      12.4880,      12.4890,      12.4900,
      12.4910,      12.4920,      12.4930,      12.4940,      12.4950,
      12.4960,      12.4970,      12.4980,      12.4990,      12.5000,
      12.5010,      12.5020,      12.5030,      12.5040,      12.5050,
      12.5060,      12.5070,      12.5080,      12.5090,      12.5100,
      12.5110,      12.5120,      12.5130,      12.5140,      12.5150,
      12.5160,      12.5170,      12.5180,      12.5190,      12.5200,
      12.5210,      12.5220,      12.5230,      12.5240,      12.5250,
      12.5260,      12.5270,      12.5280,      12.5290,      12.5300,
      12.5310,      12.5320,      12.5330,      12.5340,      12.5350,
      12.5360,      12.5370,      12.5380,      12.5390,      12.5400,
      12.5410,      12.5420,      12.5430,      12.5440,      12.5450,
      12.5460,      12.5470,      12.5480,      12.5490,      12.5500,
      12.5510,      12.5520,      12.5530,      12.5540,      12.5550,
      12.5560,      12.5570,      12.5580,      12.5590,      12.5600,
      12.5610,      12.5620,      12.5630,      12.5640,      12.5650,
      12.5660,      12.5670,      12.5680,      12.5690,      12.5700,
      12.5710,      12.5720,      12.5730,      12.5740,      12.5750,
      12.5760,      12.5770,      12.5780,      12.5790,      12.5800,
      12.5810,      12.5820,      12.5830,      12.5840,      12.5850,
      12.5860,      12.5870,      12.5880,      12.5890,      12.5900,
      12.5910,      12.5920,      12.5930,      12.5940,      12.5950,
      12.5960,      12.5970,      12.5980,      12.5990,      12.6000,
      12.6010,      12.6020,      12.6030,      12.6040,      12.6050,
      12.6060,      12.6070,      12.6080,      12.6090,      12.6100,
      12.6110,      12.6120,      12.6130,      12.6140,      12.6150,
      12.6160,      12.6170,      12.6180,      12.6190,      12.6200,
      12.6210,      12.6220,      12.6230,      12.6240,      12.6250,
      12.6260,      12.6270,      12.6280,      12.6290,      12.6300,
      12.6310,      12.6320,      12.6330,      12.6340,      12.6350,
      12.6360,      12.6370,      12.6380,      12.6390,      12.6400,
      12.6410,      12.6420,      12.6430,      12.6440,      12.6450,
      12.6460,      12.6470,      12.6480,      12.6490,      12.6500,
      12.6510,      12.6520,      12.6530,      12.6540,      12.6550,
      12.6560,      12.6570,      12.6580,      12.6590,      12.6600,
      12.6610,      12.6620,      12.6630,      12.6640,      12.6650,
      12.6660,      12.6670,      12.6680,      12.6690,      12.6700,
      12.6710,      12.6720,      12.6730,      12.6740,      12.6750,
      12.6760,      12.6770,      12.6780,      12.6790,      12.6800,
      12.6810,      12.6820,      12.6830,      12.6840,      12.6850,
      12.6860,      12.6870,      12.6880,      12.6890,      12.6900,
      12.6910,      12.6920,      12.6930,      12.6940,      12.6950,
      12.6960,      12.6970,      12.6980,      12.6990,      12.7000,
      12.7010,      12.7020,      12.7030,      12.7040,      12.7050,
      12.7060,      12.7070,      12.7080,      12.7090,      12.7100,
      12.7110,      12.7120,      12.7130,      12.7140,      12.7150,
      12.7160,      12.7170,      12.7180,      12.7190,      12.7200,
      12.7210,      12.7220,      12.7230,      12.7240,      12.7250,
      12.7260,      12.7270,      12.7280,      12.7290,      12.7300,
      12.7310,      12.7320,      12.7330,      12.7340,      12.7350,
      12.7360,      12.7370,      12.7380,      12.7390,      12.7400,
      12.7410,      12.7420,      12.7430,      12.7440,      12.7450,
      12.7460,      12.7470,      12.7480,      12.7490,      12.7500,
      12.7510,      12.7520,      12.7530,      12.7540,      12.7550,
      12.7560,      12.7570,      12.7580,      12.7590,      12.7600,
      12.7610,      12.7620,      12.7630,      12.7640,      12.7650,
      12.7660,      12.7670,      12.7680,      12.7690,      12.7700,
      12.7710,      12.7720,      12.7730,      12.7740,      12.7750,
      12.7760,      12.7770,      12.7780,      12.7790,      12.7800,
      12.7810,      12.7820,      12.7830,      12.7840,      12.7850,
      12.7860,      12.7870,      12.7880,      12.7890,      12.7900,
      12.7910,      12.7920,      12.7930,      12.7940,      12.7950,
      12.7960,      12.7970,      12.7980,      12.7990,      12.8000,
      12.8010,      12.8020,      12.8030,      12.8040,      12.8050,
      12.8060,      12.8070,      12.8080,      12.8090,      12.8100,
      12.8110,      12.8120,      12.8130,      12.8140,      12.8150,
      12.8160,      12.8170,      12.8180,      12.8190,      12.8200,
      12.8210,      12.8220,      12.8230,      12.8240,      12.8250,
      12.8260,      12.8270,      12.8280,      12.8290,      12.8300,
      12.8310,      12.8320,      12.8330,      12.8340,      12.8350,
      12.8360,      12.8370,      12.8380,      12.8390,      12.8400,
      12.8410,      12.8420,      12.8430,      12.8440,      12.8450,
      12.8460,      12.8470,      12.8480,      12.8490,      12.8500,
      12.8510,      12.8520,      12.8530,      12.8540,      12.8550,
      12.8560,      12.8570,      12.8580,      12.8590,      12.8600,
      12.8610,      12.8620,      12.8630,      12.8640,      12.8650,
      12.8660,      12.8670,      12.8680,      12.8690,      12.8700,
      12.8710,      12.8720,      12.8730,      12.8740,      12.8750,
      12.8760,      12.8770,      12.8780,      12.8790,      12.8800,
      12.8810,      12.8820,      12.8830,      12.8840,      12.8850,
      12.8860,      12.8870,      12.8880,      12.8890,      12.8900,
      12.8910,      12.8920,      12.8930,      12.8940,      12.8950,
      12.8960,      12.8970,      12.8980,      12.8990,      12.9000,
      12.9010,      12.9020,      12.9030,      12.9040,      12.9050,
      12.9060,      12.9070,      12.9080,      12.9090,      12.9100,
      12.9110,      12.9120,      12.9130,      12.9140,      12.9150,
      12.9160,      12.9170,      12.9180,      12.9190,      12.9200,
      12.9210,      12.9220,      12.9230,      12.9240,      12.9250,
      12.9260,      12.9270,      12.9280,      12.9290,      12.9300,
      12.9310,      12.9320,      12.9330,      12.9340,      12.9350,
      12.9360,      12.9370,      12.9380,      12.9390,      12.9400,
      12.9410,      12.9420,      12.9430,      12.9440,      12.9450,
      12.9460,      12.9470,      12.9480,      12.9490,      12.9500,
      12.9510,      12.9520,      12.9530,      12.9540,      12.9550,
      12.9560,      12.9570,      12.9580,      12.9590,      12.9600,
      12.9610,      12.9620,      12.9630,      12.9640,      12.9650,
      12.9660,      12.9670,      12.9680,      12.9690,      12.9700,
      12.9710,      12.9720,      12.9730,      12.9740,      12.9750,
      12.9760,      12.9770,      12.9780,      12.9790,      12.9800,
      12.9810,      12.9820,      12.9830,      12.9840,      12.9850,
      12.9860,      12.9870,      12.9880,      12.9890,      12.9900,
      12.9910,      12.9920,      12.9930,      12.9940,      12.9950,
      12.9960,      12.9970,      12.9980,      12.9990,      13.0000,
      13.0010,      13.0020,      13.0030,      13.0040,      13.0050,
      13.0060,      13.0070,      13.0080,      13.0090,      13.0100,
      13.0110,      13.0120,      13.0130,      13.0140,      13.0150,
      13.0160,      13.0170,      13.0180,      13.0190,      13.0200,
      13.0210,      13.0220,      13.0230,      13.0240,      13.0250,
      13.0260,      13.0270,      13.0280,      13.0290,      13.0300,
      13.0310,      13.0320,      13.0330,      13.0340,      13.0350,
      13.0360
}
