ENVI ASCII Plot File [Wed Aug 30 18:04:21 2017]
Column 1: Wavelength
Column 2: Red clay tile 1~~1
Column 3: Red clay tile 2~~2
Column 4: Red clay tile 3~~3
Column 5: Red clay tile 4~~4
Column 6: Red cement tile 1~~5
Column 7: Red cement tile 2~~6
Column 8: Red cement tile 3~~7
Column 9: Bitumen 1~~8
Column 10: Bitumen 2~~9
Column 11: Bitumen 3~~10
Column 12: Bitumen 4~~11
Column 13: Bitumen 5~~12
Column 14: Brown tile~~13
Column 15: Black tile~~14
Column 16: Brown shingle~~15
Column 17: White roof material (polyethylene)~~16
Column 18: White roof material (unknown) 1~~17
Column 19: White roof material (unknown) 2~~18
Column 20: White roof material (unknown) 3~~19
Column 21: White roof material (unknown) 4~~20
Column 22: Greenish roof material (unknown)~~21
Column 23: Light gray roof material (unknown)~~22
Column 24: Zinc~~23
Column 25: Asphalt 1~~24
Column 26: Asphalt 2~~25
Column 27: Asphalt 3~~26
Column 28: Asphalt 4~~27
Column 29: Concrete 1~~28
Column 30: Concrete 2~~29
Column 31: Concrete 3~~30
Column 32: Grass (intensively manicured) 1~~31
Column 33: Grass (intensively manicured) 2~~32
Column 34: Grass (extensively manicured)~~33
Column 35: Grass (agricultural grassland) 1~~34
Column 36: Grass (agricultural grassland) 2~~35
Column 37: Grass (agricultural grassland)3~~36
Column 38: Grass (meadow clover) 1~~37
Column 39: Grass (meadow clover) 2~~38
Column 40: Grass (meadow alfalfa/lucerne)~~39
Column 41: Grass (dry) 1~~40
Column 42: Grass (dry) 2~~41
Column 43: Grass (dry agricultural grassland)~~42
Column 44: Sunflower~~43
Column 45: Corn~~44
Column 46: Sorghum~~45
Column 47: Sugarbeet 1~~46
Column 48: Sugarbeet 2~~47
Column 49: Potatoes~~48
Column 50: Deciduous tree 1~~49
Column 51: Deciduous tree 2~~1
Column 52: Deciduous tree 3~~2
Column 53: Deciduous tree 4~~3
Column 54: Deciduous tree 5~~4
Column 55: Deciduous tree 6~~5
Column 56: Deciduous tree 7~~6
Column 57: Deciduous tree 8~~7
Column 58: Deciduous tree 9~~8
Column 59: Deciduous tree 10~~9
Column 60: Deciduous tree 11~~10
Column 61: Coniferous tree 1~~11
Column 62: Coniferous tree 2~~12
Column 63: Bare soil 1~~13
Column 64: Bare soil 2~~14
Column 65: Sand (playground) 1~~15
Column 66: Sand (playground) 2~~16
Column 67: Red sand (cinder field)~~17
Column 68: Red sand (cinder court) 1~~18
Column 69: Red sand (cinder court) 2~~19
Column 70: Railtrack 1~~20
Column 71: Railtrack 2~~21
Column 72: Artificial turf 1~~22
Column 73: Artificial turf 2~~23
Column 74: Tartan (sports ground)~~24
Column 75: Water1~~25
Column 76: Water 2~~26
  0.460000   589.956120   588.689111   546.536259   454.103351   422.880463   433.621481   486.642309   742.143691   400.336944   665.290430   590.435751   691.555887   439.424254   479.961671   477.017090  1749.725491  1611.930430  1940.182149  2573.605478  3949.701488   695.954859  1425.409466   910.795256   536.091514   488.454588   539.060310   548.718162   867.020488  1039.810032  1737.806499   248.314347   294.245128   449.767783   246.102996   324.562639   379.310213   295.033511   275.614932   310.668964   395.953767   613.910146   366.213284   341.942944   268.502571   274.868086   523.652099   385.204479   415.906012   234.715175   218.840465   249.078739   236.688461   206.600241   182.610415   220.127665   163.134784   237.043835   128.989937   105.667580   196.016785   193.860568   825.789273   821.522027   924.348459   897.476375   609.673187   462.366156   507.697091   655.790120   372.659676   297.939628   563.439988   414.543524   180.832725  3503.098786
  0.465000   655.978173   656.148270   609.815791   504.913069   471.232049   483.249463   539.538078   829.738528   442.599580   746.023729   662.071258   776.361451   491.289422   533.916838   531.353541  1957.434565  1804.235727  2175.469846  2889.628708  4430.140853   777.278021  1593.298912  1018.452495   594.033860   542.502254   602.298267   613.404252   968.386754  1163.297817  1962.565780   276.628640   328.917466   506.233610   276.539922   363.724343   426.747799   328.541808   309.328586   348.160751   446.179807   692.909136   415.427200   388.512909   301.808566   310.935993   589.012131   429.247916   464.102700   261.228196   243.728850   277.245753   259.807538   232.595596   205.892790   245.751403   181.848761   264.885984   143.550327   117.616253   216.748286   215.289891   931.949541   928.098783  1046.122611  1012.201309   683.850199   518.284552   568.606816   733.971670   416.083187   333.311409   644.409060   460.783616   200.411640  3916.492462
  0.470000   656.598732   657.877401   612.329245   505.044945   472.577810   483.976342   538.413264   834.045187   440.487936   752.615035   666.851178   785.016119   493.695438   534.081049   532.305948  1969.582736  1816.817969  2194.823921  2920.085788  4471.153021   781.192482  1602.078676  1024.424583   592.267029   541.934408   605.388395   617.108308   972.475559  1170.678064  1995.999664   277.219955   331.050195   513.092875   279.714055   366.849862   432.357192   329.028629   312.317051   350.753777   452.612862   704.636723   424.719080   397.649072   305.465404   315.980166   596.519746   430.513956   466.184430   261.098165   243.873578   277.312789   256.232880   235.278029   208.185799   246.434454   182.373486   266.312081   143.692754   117.984489   215.525087   214.820113   947.011635   944.234878  1066.302136  1028.632298   690.126792   523.104779   573.642887   739.243999   417.683460   335.474238   663.628727   460.527949   199.618675  3928.190470
  0.475000   662.018955   661.688149   617.545508   507.465601   476.352125   484.234542   541.681871   837.997794   442.856997   760.029033   667.948499   797.952786   495.287515   535.593517   534.584709  1983.702779  1832.596511  2217.847854  2957.181036  4519.608915   788.074061  1613.938212  1032.107621   594.660342   543.677919   609.864295   623.093583   976.712629  1179.658398  2034.843415   278.766081   335.089639   521.783419   283.608064   371.043570   439.627953   330.367088   315.478928   352.669992   459.904559   719.793513   435.938984   407.634825   310.258623   318.445861   605.933331   434.162170   470.835380   260.153282   243.587140   277.226958   254.267380   236.571245   207.501277   246.190745   183.572825   268.470123   144.330170   119.713778   215.524193   214.344207   964.184850   962.797925  1089.031771  1050.647423   697.248951   530.383773   582.590885   746.715367   419.366248   338.351019   681.969747   461.454876   199.246146  3902.432621
  0.479000   665.821582   664.263815   621.053465   509.179123   478.928201   484.368503   544.095486   840.472430   444.708355   764.774755   668.359995   806.449503   496.234372   536.660962   536.133423  1992.782354  1842.815280  2232.672274  2981.112301  4550.783336   792.654976  1621.676385  1037.097573   596.504770   544.966571   612.801872   627.052635   979.409367  1185.460091  2059.763372   279.820245   337.789878   527.409352   286.122411   373.775475   444.345325   331.283025   317.489281   353.829712   464.571826   729.620159   443.163328   413.998142   313.372128   319.801718   612.022802   436.656028   473.975427   259.498935   243.376940   277.165789   253.161062   237.279497   206.839163   245.968401   184.384361   269.891322   144.772930   120.911980   215.623900   214.047898   975.181535   974.694341  1103.564054  1064.968109   701.811984   535.170212   588.543788   751.605704   420.439728   340.224653   693.461746   462.139621   199.047867  3883.314133
  0.484000   672.029182   668.831989   626.616031   512.168184   483.066291   484.727360   548.021756   844.261274   447.186567   772.144645   668.877587   819.742978   497.868620   538.281612   538.728423  2007.285506  1859.242916  2256.355286  3019.186556  4600.352347   800.326169  1634.303778  1045.045704   599.233620   546.765476   617.336072   633.309186   984.082893  1195.259169  2099.326253   281.872507   342.510268   536.566302   290.555321   378.546119   452.211536   333.038531   320.888944   355.964117   472.132079   745.288655   454.609655   424.922220   318.564363   322.584733   622.492023   441.472717   479.543358   258.763451   243.115388   277.245343   251.560248   238.112211   205.879398   245.651361   185.742900   272.223279   145.474765   122.822672   215.964075   213.728156   992.757976   993.557945  1126.848459  1087.840050   709.137172   542.879812   598.158985   759.426132   422.332995   343.341343   711.950287   463.330299   198.683795  3847.206831
  0.489000   679.564029   677.183941   632.108897   517.274998   487.572737   486.246236   552.676469   846.934617   445.992351   778.195113   668.329597   831.447914   500.541031   539.309569   542.396158  2022.458166  1877.253652  2281.155288  3057.810664  4650.411904   811.131969  1649.613529  1053.180248   600.365289   546.597801   620.830767   639.318824   991.856754  1209.699884  2138.798237   286.920462   350.652374   547.486544   298.475418   386.740565   463.045798   337.177292   325.931497   360.421687   480.869673   761.455297   465.846956   442.337245   325.719602   330.367275   639.289990   453.071706   489.713103   260.436684   243.427455   278.725512   251.191556   236.635078   205.654278   245.622955   187.652726   275.148321   146.165323   124.792568   217.742585   214.603804  1011.232510  1012.196019  1151.769236  1111.734286   717.085898   551.445186   609.048530   767.672062   425.720997   347.576626   732.340440   465.336815   197.928138  3765.651584
  0.494000   687.421486   686.307028   637.650043   522.820316   492.198393   487.994216   557.516553   849.436820   444.129482   784.073547   667.586103   842.995197   503.427424   540.242940   546.298549  2037.912756  1895.740032  2306.420505  3096.944094  4701.093435   822.620019  1665.571630  1061.433926   601.223707   546.077564   624.177568   645.349920  1000.269502  1225.132272  2178.677171   292.579085   359.514654   558.853783   307.125058   395.651422   474.540628   341.804810   331.334509   365.357623   489.919446   777.890980   477.171168   461.126082   333.315954   339.146852   657.421872   466.030873   500.830673   262.569748   243.854839   280.484352   251.044463   234.735925   205.565132   245.655328   189.689510   278.219655   146.867335   126.801291   219.806433   215.710923  1030.069217  1030.996218  1177.259460  1136.076748   725.234151   560.258776   620.287731   776.085034   429.416932   352.062583   753.307343   467.512049   197.098777  3675.011694
  0.499000   696.424320   696.539804   643.819347   529.436842   497.932211   490.753800   563.498847   852.023661   442.588776   790.117756   667.076632   855.313390   506.307259   541.338548   550.991409  2053.905278  1914.854497  2332.593948  3137.154281  4753.305614   835.506395  1682.866812  1069.728658   602.261946   545.822866   627.807453   651.872903  1009.060368  1242.252961  2220.239341   302.276984   372.545980   573.357940   319.946893   407.847054   488.940477   349.960923   339.273438   373.266973   500.818416   796.297118   489.726067   485.376827   343.665555   351.740234   680.145398   483.527966   515.172929   266.773123   246.053841   284.589715   251.818411   234.206282   206.750240   247.482061   193.276498   283.077694   148.760462   130.246747   223.602336   218.389817  1050.264165  1051.092222  1205.596849  1163.119227   734.229535   570.032038   632.866174   785.304159   433.986261   357.682779   778.512210   469.980240   197.107773  3567.433059
  0.503000   704.220608   704.694465   648.658350   535.911210   504.188091   495.353006   569.969825   853.478611   443.092436   793.373659   667.669475   863.382444   507.526994   542.383976   555.697754  2062.748671  1925.351769  2347.159088  3158.487976  4781.459868   845.819861  1694.929600  1073.516384   603.367724   546.657965   630.388707   656.412840  1014.128402  1255.370528  2244.230211   320.101082   392.265692   590.287037   339.582935   424.214378   505.009592   365.398638   351.285152   386.724137   511.828512   811.041370   499.415137   514.321178   357.464254   370.027013   705.484971   506.371967   532.252863   275.548212   252.985805   294.279661   255.235247   238.653999   211.553182   254.334062   200.073514   291.231349   153.613910   136.611108   231.081750   224.842429  1063.721403  1064.323559  1227.644235  1184.117049   741.034597   577.553697   642.893538   792.075470   438.907407   363.956876   803.866014   472.034700   199.950747  3464.067280
  0.508000   717.201158   718.100816   656.592473   546.871945   514.917672   503.547415   581.057556   855.709165   444.376767   798.313096   668.907091   876.184627   509.248711   544.147752   563.689843  2076.255828  1941.357255  2369.440049  3190.729320  4824.189544   862.785950  1714.305878  1078.996286   605.258085   548.303761   634.548813   663.701892  1021.947786  1276.795864  2281.258702   352.072716   427.152365   619.537644   374.354832   452.879034   532.641783   393.141732   372.534655   410.738923   530.542955   835.300162   515.259989   564.447865   381.616801   402.272753   749.054402   546.280667   561.826006   291.409213   265.751109   311.906878   261.592865   247.252155   220.468361   267.023928   212.288406   305.767879   162.477009   148.030650   244.555008   236.591361  1085.147485  1085.339710  1263.746768  1218.490377   752.125978   589.849427   659.379810   803.054795   447.335243   374.745578   846.943483   475.435033   205.373038  3289.477825
  0.513000   729.484782   730.943009   663.944036   557.271615   525.046177   511.322282   591.626242   857.484937   445.263870   802.596360   669.810995   887.679234   511.116311   545.728095   571.214110  2088.518590  1956.031770  2389.927655  3220.399618  4864.080250   878.774822  1732.669175  1083.619148   606.719963   549.469255   638.115928   670.432374  1029.157192  1297.001392  2315.940261   384.068526   461.763106   648.063496   409.088805   480.905175   559.863858   421.232171   393.380150   434.715860   548.571646   858.302936   530.335568   613.527671   405.524932   434.722342   791.655481   585.789420   590.949543   307.577029   278.670117   329.776667   268.155225   255.689789   229.193456   279.444940   224.337131   320.259482   171.359032   159.442797   257.924683   248.206034  1105.149835  1105.095744  1297.537088  1251.045913   762.805045   601.899214   675.412789   813.241601   455.244742   385.119058   890.109763   478.604995   210.499223  3122.865856
  0.518000   741.865709   745.093450   670.202971   567.924455   535.006374   519.205108   602.790304   856.794938   443.602689   804.071352   668.664202   894.733891   514.850914   546.649396   578.477308  2097.223997  1967.572272  2406.486720  3244.652450  4901.030064   894.434601  1751.525998  1084.215418   605.726540   547.648147   638.960898   676.014498  1035.119742  1316.929311  2348.788530   428.943187   508.243032   682.961270   457.429998   515.640751   595.194995   462.942906   419.680886   467.967279   569.065474   881.898627   546.201207   674.972236   437.297300   481.614321   844.624266   638.337806   628.633872   332.328901   297.753196   356.425308   278.739277   266.218856   239.973664   294.808410   239.982326   340.202563   183.873810   175.333656   275.855139   263.444334  1123.454943  1124.224067  1328.911632  1284.189373   774.993971   617.203750   694.862530   822.045282   462.676175   396.740660   951.498821   481.444821   215.491522  2944.911122
  0.523000   754.288733   759.667829   676.124915   578.665100   544.922128   527.128838   614.150874   855.329707   441.139638   804.664269   666.872710   900.395215   519.178621   547.364615   585.664213  2104.816437  1978.134811  2421.819568  3267.211318  4937.076271   909.996405  1770.548075  1083.545238   603.961684   544.888079   638.951063   681.239218  1040.694565  1336.780339  2381.078154   477.889553   558.477975   719.880909   510.074608   552.503243   633.094162   508.957952   447.710380   504.151918   590.345599   905.693769   562.324114   740.335286   471.559316   533.072203   900.879577   695.011988   669.028684   359.793864   318.785273   385.849141   290.594064   277.411323   251.406059   311.105382   256.766584   361.870751   197.537709   192.641225   295.228213   279.829763  1141.236946  1143.165454  1359.544545  1317.535937   787.667111   633.545369   715.402812   830.419213   469.962433   408.762433  1018.657535   484.184548   220.445413  2763.296664
  0.528000   768.341571   775.843710   683.259740   590.268560   555.968657   536.006130   626.609847   854.192004   439.008325   805.497020   665.471554   906.166062   524.730533   548.345111   593.579486  2112.952471  1989.194751  2437.513620  3289.371431  4974.296093   924.641863  1789.632440  1083.021164   602.776110   542.730540   639.349520   686.827898  1046.806276  1356.624663  2413.560897   525.369085   607.267469   756.315887   561.421923   588.473342   670.227930   553.780571   475.164428   539.429933   611.533523   929.696783   578.529239   804.111138   505.238250   583.425686   955.833718   750.089139   708.392635   386.892483   339.594521   414.842330   302.340239   288.536772   262.781978   327.247865   273.257550   383.287594   211.009178   209.626481   313.962437   295.832772  1159.480140  1162.399128  1390.841454  1351.152211   801.228508   651.519820   737.718120   839.185938   477.706715   421.239547  1087.021828   487.717204   225.794837  2582.923174
  0.533000   793.156251   802.378133   698.613673   607.531779   574.522950   551.170036   646.226853   855.663121   439.526848   808.418170   667.020157   913.450643   538.047440   551.197529   606.357343  2125.317752  2004.102021  2456.294447  3309.849501  5019.788742   933.277383  1809.033304  1084.182486   605.861396   545.093678   642.936230   695.027560  1056.689769  1376.467496  2447.638065   560.828038   644.358248   788.394883   601.739548   617.329851   700.837746   588.266589   497.828387   567.042120   631.664544   954.961553   595.132411   855.157003   533.644147   623.877123  1000.309289   792.253017   739.393979   410.026051   357.822515   439.409055   312.645920   298.841670   273.414049   341.837779   287.160743   402.061492   222.554542   223.673955   327.649079   308.653750  1181.070581  1183.670834  1426.954120  1386.435777   820.393339   679.711625   771.161169   850.795358   488.564186   436.502472  1160.085574   496.554263   233.783443  2412.836552
  0.538000   821.563900   832.369104   716.714412   626.681000   595.583208   568.433255   668.232292   858.008415   440.934077   812.037662   669.557080   921.236947   553.959943   554.675683   620.757043  2139.092535  2020.287514  2476.095408  3329.746127  5068.019032   939.887092  1828.523576  1085.908189   610.376820   548.971407   647.589713   704.096034  1067.830399  1396.292448  2482.221574   592.219867   677.488744   818.983167   638.317987   643.772706   729.230121   619.251020   518.863797   592.055880   651.422888   980.627760   611.854866   901.884064   560.254119   660.967305  1041.227505   830.043703   767.560378   431.807414   375.166982   462.467410   322.458781   308.861714   283.786543   355.893001   300.182365   419.930890   233.442523   236.722175   339.628831   320.394747  1203.766316  1205.608398  1464.651972  1422.248781   841.423199   711.311176   808.313340   863.348618   500.457101   452.686995  1234.660968   507.165231   242.650472  2246.347070
  0.543000   849.966854   862.355530   734.821334   645.483509   616.727769   586.052127   690.586567   860.345215   442.277119   815.485865   672.004893   928.411931   569.796860   557.975397   634.886101  2152.225375  2035.562396  2494.928539  3348.638713  5114.012361   944.973677  1846.724004  1087.512821   614.537634   552.571677   651.989430   712.572485  1078.274548  1414.712965  2514.822185   619.665682   706.657171   846.618041   670.515746   667.339638   754.602924   646.225363   537.524298   614.048541   669.555515  1004.479751   627.449900   943.455771   583.868362   693.470910  1077.661663   863.175839   792.502165   451.122299   390.494503   482.887812   331.291035   317.875780   293.033551   368.413255   311.642494   435.829721   242.990963   248.148628   350.011885   330.673717  1225.222945  1226.301938  1500.066072  1455.910802   861.933753   742.867664   845.238864   875.186548   511.725023   467.770360  1303.310990   518.030263   250.817630  2091.263235
  0.549000   911.523923   927.771404   773.625150   681.905821   664.030164   629.562959   744.663328   864.563808   443.365648   820.172504   675.182492   935.686901   602.327883   562.305935   661.853328  2171.799839  2056.406140  2523.558736  3378.888071  5185.434222   937.425420  1870.410591  1088.795364   617.328249   555.062406   657.244176   722.693354  1090.988070  1437.397450  2561.532557   631.853417   722.488537   870.306641   687.096938   683.831051   772.981793   655.684695   548.819341   625.015572   688.831732  1033.387631   647.376776   971.437246   597.970337   707.328990  1102.391556   878.725424   807.700306   462.280251   398.251787   494.345576   338.355005   324.736089   298.686195   376.135446   316.949077   445.610173   246.762689   252.657048   353.337191   334.911272  1255.953312  1255.732030  1547.653675  1502.649933   899.870396   811.447576   923.296660   891.264230   527.662896   485.879853  1375.948191   544.760637   258.658137  1889.873892
  0.554000   958.977565   978.237316   803.514272   709.568188   700.946823   663.964748   787.318721   867.680311   443.997644   823.395774   677.360818   940.313116   627.161935   565.291569   682.230294  2185.822129  2071.009427  2544.129193  3400.793970  5237.140059   929.614455  1886.802763  1089.497209   618.808791   556.415357   660.809577   729.528889  1099.653542  1452.917308  2594.684660   635.692328   729.138330   884.293094   693.665296   692.509264   782.861114   657.286867   554.114208   629.166141   701.295510  1052.963436   661.084428   985.803381   604.502819   711.448491  1115.137786   884.189978   814.869106   467.241965   401.228257   499.287695   342.292860   328.466780   301.368237   379.786231   318.763331   450.229608   247.694999   253.765248   353.659354   336.054862  1277.767420  1276.578307  1580.922455  1535.572857   928.392559   864.347294   983.218402   902.517289   538.939722   497.987866  1422.751546   566.022806   263.538808  1750.805229
  0.559000  1010.282189  1032.723710   836.034492   739.879459   743.611008   703.911111   836.900622   870.624334   444.550700   826.003700   679.292083   944.333673   653.509870   568.018965   704.030320  2199.813575  2085.250318  2564.425468  3421.870768  5289.689302   920.938849  1902.679205  1089.752018   620.308630   557.839870   664.368123   736.057311  1108.239368  1468.383372  2627.550066   634.744540   731.336921   895.311460   695.372373   698.427632   789.712146   654.362291   556.810275   629.770607   712.207183  1071.374193   674.185455   995.511115   607.731938   710.590929  1123.575494   884.844139   818.598121   468.993969   401.589759   500.750691   344.422683   330.494680   302.856453   381.442681   318.788625   452.369079   246.999841   252.897125   352.051109   335.312970  1299.444586  1297.177970  1613.846570  1568.079442   958.924890   921.652019  1047.594249   913.504362   550.097711   508.208610  1462.858617   591.982417   267.706327  1618.274152
  0.565000  1106.424034  1134.379655   898.188427   799.166709   839.561969   794.661641   949.850902   873.687714   444.882959   825.863481   680.503771   946.397483   700.014383   570.297539   743.647441  2219.485790  2103.283405  2591.491640  3446.490765  5369.471312   903.895274  1922.141761  1087.357774   622.717775   560.444966   669.438839   743.514895  1120.061427  1490.223110  2672.497034   604.674071   707.790926   893.130675   668.725595   690.365732   781.325102   623.212159   545.085371   609.372817   718.313083  1090.509295   689.132661   981.616080   592.552274   679.724738  1109.872088   857.136920   803.313032   452.143773   386.383422   481.861494   336.377397   322.987251   297.850873   371.778235   308.137666   440.480150   236.278735   239.835661   338.209681   322.934315  1329.421997  1324.944943  1658.670455  1611.780077  1014.562696  1029.687226  1165.908501   927.508026   565.234572   511.065274  1479.109973   657.866597   269.346293  1469.778866
  0.570000  1176.857948  1208.900660   943.918005   843.081772   912.010223   863.430277  1035.342440   875.882953   445.150845   825.482607   681.335628   947.530344   733.706951   571.845323   772.435665  2233.368009  2115.901113  2610.433102  3463.441133  5426.551700   891.774446  1935.517937  1085.391045   624.523722   562.382005   673.086718   748.700723  1128.380001  1505.521089  2704.071999   581.151806   689.017475   890.158191   647.378862   683.244243   773.824155   599.056594   535.512604   593.247339   721.859336  1103.468388   699.430704   969.199985   580.153093   655.451939  1097.902060   835.157707   790.809989   438.668281   374.432057   466.829017   329.868719   316.924267   293.785930   363.945812   299.789757   430.864431   227.978230   229.708888   327.563509   313.301794  1350.505501  1344.431192  1689.993143  1642.197818  1055.488810  1108.985990  1252.354383   937.278345   575.844049   511.160195  1483.878046   708.892643   270.074327  1370.472461
  0.575000  1249.824390  1286.538094   991.886929   890.239179   992.590189   940.955579  1131.081805   878.857002   445.841178   825.544223   682.840794   948.779434   767.671391   573.899485   801.452249  2247.424573  2129.128724  2629.509866  3480.906487  5485.546589   881.538242  1948.591769  1083.319932   626.779124   564.571917   677.127987   754.431933  1136.803031  1520.330161  2735.911608   559.748746   672.115013   888.532475   627.012998   676.745921   766.974390   576.828197   526.814684   578.543991   726.099312  1117.134988   710.304007   956.706628   568.661690   632.730201  1086.540818   814.570412   779.476091   426.438004   363.862664   453.229882   324.498340   312.011745   290.465131   356.736928   292.369537   422.199294   220.644604   220.664982   318.028443   304.560941  1371.723264  1364.188641  1720.769405  1671.722978  1099.420562  1191.712618  1341.552138   947.312266   586.476251   506.707206  1472.827494   770.117640   270.661861  1280.312687
  0.581000  1354.511529  1398.876607  1062.002033   961.507782  1120.201945  1065.828353  1284.018606   884.644613   447.728299   826.625377   686.397552   950.736254   814.360008   577.825829   841.329098  2266.887724  2148.447484  2655.697167  3505.761921  5569.893718   871.892720  1965.649277  1080.274358   630.849749   568.110384   683.495477   763.435736  1148.464829  1539.322734  2779.707611   535.494052   653.407276   889.367536   601.603836   669.341162   759.156570   551.021099   516.990982   561.806858   733.418465  1137.275472   726.353824   939.598307   555.123836   605.408773  1072.509363   789.786205   766.740888   412.657037   352.640226   438.015535   319.778472   307.940394   287.636891   348.365605   284.394864   412.589982   212.875158   210.837424   307.597537   294.714011  1400.813758  1391.606629  1761.298627  1709.774882  1165.784746  1311.656386  1468.752921   961.519852   600.952990   490.435921  1422.250718   876.126736   271.141734  1178.533435
  0.587000  1458.020359  1510.208696  1131.535396  1032.058075  1248.847023  1191.441268  1437.992305   890.461057   449.717939   827.792734   689.846277   952.338055   859.462693   581.683293   879.685432  2286.040038  2167.403549  2681.537867  3530.109823  5654.575825   863.349214  1982.098520  1076.886803   634.833425   571.297631   689.735785   772.335976  1159.779131  1557.785273  2823.092043   513.122715   636.433661   891.264081   577.641502   662.781447   752.280578   527.110510   508.072115   546.492599   741.245747  1157.847196   742.578283   923.232287   542.561635   579.838939  1059.515029   766.644925   755.210966   399.922058   342.326462   423.931032   315.361731   304.261111   284.948051   340.569280   276.989155   403.708890   205.698162   201.775841   297.925044   285.495650  1429.569870  1418.826282  1800.669730  1746.752262  1232.416779  1430.496722  1594.222933   975.292027   615.009591   471.848994  1362.933517   985.874534   270.427652  1080.946103
  0.592000  1521.554738  1579.093784  1174.363196  1073.708087  1331.445873  1269.915402  1535.357088   893.578827   450.957641   828.369111   690.903291   951.840281   883.860439   583.404601   899.734870  2297.804058  2178.244740  2697.836459  3544.216156  5712.068081   859.448984  1991.402507  1073.278934   636.643842   571.735762   693.018138   777.355507  1166.056246  1569.049954  2851.106524   502.521731   629.289523   895.133540   565.656237   660.864562   750.503466   515.751503   504.434630   539.819300   747.825503  1172.921881   753.768682   915.024877   536.645688   567.233600  1053.943634   755.487531   750.603378   393.728279   337.068886   416.896641   312.035941   301.793665   282.671228   336.693153   272.958148   399.275720   201.870110   197.198372   292.856488   280.500092  1447.942257  1436.507255  1823.922396  1769.145131  1275.695711  1503.775418  1670.421362   982.702225   622.997172   455.508530  1306.985319  1063.715816   265.235938  1018.437669
  0.598000  1608.282924  1673.479229  1232.945174  1129.330397  1446.559280  1377.817392  1670.027822   897.493958   452.634059   829.011500   691.600889   950.106233   914.924070   585.307442   924.652740  2313.851267  2192.497104  2720.378041  3562.815785  5794.529915   855.066478  2003.507614  1067.129225   638.662204   571.315140   697.114319   783.896074  1174.151897  1584.356278  2890.395522   490.015000   621.603429   902.207941   550.976656   659.617633   749.672204   502.359755   500.636734   532.435179   758.014992  1195.240170   769.969895   904.810876   529.683679   551.915243  1047.804803   742.118135   745.868832   386.256538   330.524668   408.259034   307.014063   298.226699   279.118493   331.923552   267.738476   393.846333   196.985304   191.560984   286.457594   274.059605  1473.602951  1461.395770  1855.144352  1799.538136  1336.480081  1604.077071  1773.930341   992.100611   633.469447   429.914109  1217.559278  1177.122742   254.886169   931.641310
  0.604000  1682.475805  1754.066497  1283.332556  1175.225079  1544.291973  1468.433142  1783.480495   900.333598   453.709103   828.907043   691.691712   947.733149   940.805748   586.725064   944.347754  2327.359915  2204.467952  2739.684880  3577.460647  5869.079828   851.931721  2012.980580  1059.197485   639.998242   570.849590   700.366125   789.284185  1180.709675  1597.119570  2925.626934   477.791391   613.584742   908.163488   536.737144   658.115968   748.561248   489.709303   496.684983   524.976701   767.075866  1215.766743   785.191804   893.064141   522.694252   536.665283  1040.835977   728.546903   740.688667   378.624462   323.886313   399.499349   301.787239   294.414386   275.724698   326.771215   262.510590   388.493128   192.252491   186.177194   280.244499   267.753173  1496.853083  1484.029889  1882.981509  1825.878620  1390.049458  1690.522134  1862.952560   999.852121   642.360896   407.918505  1140.359640  1276.433915   244.754832   860.900730
  0.610000  1734.430343  1809.879243  1319.443882  1202.411205  1609.541923  1526.225358  1856.724769   900.816247   453.323610   826.800391   690.401644   943.603292   957.504585   587.203689   953.824967  2336.124629  2212.335169  2753.177285  3583.908975  5932.672620   851.368085  2017.009109  1045.555696   639.847293   570.541658   701.973140   792.505220  1184.293926  1605.027914  2955.102324   463.689528   602.649711   911.404192   520.820878   655.201748   745.954588   476.308428   491.271690   515.515320   774.098039  1234.107837   799.872801   874.903947   514.118001   518.491007  1029.972285   711.594298   732.918680   368.985049   315.702856   388.661847   295.328591   289.388970   272.372980   319.564976   256.320965   382.270068   187.054053   180.405732   273.357108   260.665771  1517.072916  1503.900290  1906.252354  1845.473200  1431.976557  1753.004491  1926.977634  1004.609913   648.523718   393.340588  1088.619381  1350.806057   234.725047   823.064521
  0.616000  1782.080680  1860.904396  1352.638900  1226.075962  1668.344587  1577.495188  1922.100931   900.867730   452.876389   824.541822   688.976422   939.308703   972.557217   587.636270   961.593091  2344.128788  2219.592333  2765.609920  3589.073122  5994.156599   851.336494  2020.197958  1030.768529   639.602318   570.312105   703.370571   795.385391  1187.468618  1612.343937  2983.563542   449.753851   591.642633   914.504156   505.041480   652.258545   743.405595   463.278443   485.926718   506.185852   781.044886  1252.196133   814.526826   856.605023   505.667552   500.589833  1019.091606   694.903806   725.152567   359.463207   307.606068   377.955548   288.989097   284.383073   269.089527   312.384330   250.256974   376.121849   181.974992   174.789950   266.602281   253.706444  1536.996067  1523.449123  1928.685457  1864.305884  1471.571028  1810.853481  1986.161172  1008.856446   654.266104   380.423255  1043.093130  1419.829279   225.254912   791.047439
  0.622000  1818.940490  1899.967641  1377.798319  1241.393685  1710.238159  1611.630917  1967.363060   899.960399   453.319587   823.019519   687.838569   935.436040   984.105170   588.595569   966.352597  2350.973338  2226.191461  2775.693238  3592.463732  6050.385833   852.799043  2022.298574  1012.941226   640.038550   570.504777   704.758689   797.782242  1190.403327  1619.815230  3009.949625   438.747182   582.789406   919.070318   491.795577   650.400594   742.643476   453.624986   482.415557   499.648489   789.308026  1270.445585   829.471126   843.181908   499.583632   487.349182  1011.658311   683.211237   719.788596   352.633074   301.554427   370.104313   284.640770   280.631147   266.262628   307.272710   245.984700   371.314958   178.187769   170.657448   261.426680   248.391628  1557.535976  1543.188542  1949.230433  1883.795261  1504.934430  1857.104301  2033.186853  1012.143642   659.462959   372.726135  1019.204706  1472.973078   219.739582   770.999938
  0.628000  1850.498766  1933.171600  1399.035901  1252.615899  1743.704230  1637.416929  2002.654225   898.652077   454.185531   821.895823   686.847642   931.764022   993.965641   589.828491   969.647169  2357.305437  2232.528478  2784.647346  3595.004678  6103.996038   855.152458  2023.857981   993.645713   640.791208   570.982806   706.230253   799.997970  1193.243191  1627.256870  3035.327196   428.847782   574.560612   923.981518   479.458347   648.772866   742.469355   445.490181   479.576364   494.317636   797.912180  1288.551092   844.467133   831.803903   494.481437   476.208478  1005.579010   673.658922   715.434253   346.925855   296.372045   363.477618   281.147435   277.401153   263.478849   303.035025   242.493059   367.027782   174.997710   167.181939   256.938860   243.793298  1578.435898  1563.055217  1968.983263  1903.599203  1535.123140  1897.566617  2074.135244  1014.974937   664.370954   367.671214  1006.255820  1518.133581   216.104910   756.805092
  0.634000  1880.255789  1964.533329  1419.157833  1262.494773  1773.329675  1660.936922  2033.836544   897.783637   455.068536   821.204633   685.950220   928.101093  1003.531441   591.273643   972.547978  2363.929451  2239.273340  2793.420553  3597.427309  6156.399846   859.092698  2025.179267   974.065512   641.497001   572.194085   708.450079   802.611634  1196.236014  1633.807868  3060.445189   416.592322   562.974252   925.921947   464.665219   644.733086   740.107447   436.710604   475.077890   488.029420   804.116428  1304.765791   858.730227   818.222389   488.218255   464.204475   997.156352   662.227347   710.012913   339.951999   290.365461   355.793685   276.924912   273.570400   259.222742   297.915153   238.442365   361.769125   171.697680   163.336117   251.956247   238.681845  1599.910557  1583.229452  1989.578754  1923.432499  1563.300341  1935.324371  2112.167925  1017.772183   669.006184   364.141650   999.517590  1559.102088   212.583952   744.372755
  0.640000  1908.001602  1993.915290  1438.147128  1270.908117  1798.176318  1682.239920  2060.079724   897.705704   455.902591   821.147859   685.179085   924.419984  1012.912244   593.014657   975.066572  2371.116728  2246.724814  2802.093029  3599.806726  6207.261086   865.460113  2026.207745   954.300240   642.068610   574.549586   711.873919   805.904642  1199.493259  1638.905704  3085.298538   400.300473   545.803271   922.948420   445.710421   636.716336   734.068975   426.611900   467.752703   479.965955   806.334615  1317.906380   871.775597   800.682381   479.887053   450.421534   984.669253   647.350177   702.670887   330.712795   282.861274   346.168503   271.361191   268.667471   252.557974   291.201174   233.341232   354.834832   168.113150   158.770271   246.045534   232.607406  1622.242182  1603.866071  2011.674941  1943.239719  1588.741392  1969.676614  2146.502435  1020.593867   673.243776   362.631008  1000.961885  1594.629884   208.911113   733.773708
  0.646000  1933.888942  2021.293491  1455.857754  1278.718710  1821.230948  1701.802909  2084.224820   897.665471   456.619561   820.992962   684.276372   920.898393  1021.779999   594.608784   977.235660  2377.945334  2253.508866  2810.123563  3601.836562  6254.888177   871.951133  2027.198523   935.507268   642.642453   576.574504   714.976266   808.986798  1202.578694  1643.732339  3108.648956   384.223387   528.743826   919.409171   427.091345   628.318116   727.690458   416.879207   460.293479   472.012423   807.437450  1329.809874   883.900300   782.082528   471.395999   436.611027   971.727148   632.340983   695.045963   321.285538   275.398064   336.420871   265.792441   263.654124   245.800149   284.325425   228.203703   347.985812   164.555777   154.241910   240.146946   226.557869  1643.654108  1623.568684  2032.693177  1961.689889  1612.496674  2001.769990  2178.531736  1023.086980   677.032620   361.908562  1005.669832  1627.755165   204.584748   723.527893
  0.653000  1967.013925  2055.655420  1478.033960  1289.679259  1854.194552  1724.257171  2116.177678   896.690339   456.794314   818.536729   680.840090   915.840492  1033.666879   595.585369   978.206247  2386.327237  2258.111238  2818.796337  3601.970971  6314.287782   881.938338  2029.204369   910.012722   644.012839   574.923865   715.430230   811.509639  1206.238568  1652.555019  3137.864769   362.018906   506.062731   914.423913   401.498452   614.344515   717.613697   404.204689   448.988862   460.710414   803.813115  1344.374716   899.318457   740.606338   456.521548   412.358232   948.219374   607.372522   680.240840   304.592438   263.806209   319.294035   257.120151   254.439451   235.611890   271.778535   219.543017   338.392220   158.406291   147.041697   230.337400   216.654241  1673.728973  1650.806218  2059.151679  1982.582211  1644.600183  2044.865638  2221.470177  1024.245843   680.083260   365.926698  1037.624255  1674.663723   189.110041   704.416782
  0.659000  1991.775781  2081.532925  1494.687647  1298.387945  1879.491359  1741.722822  2141.049504   895.987526   456.792153   816.680342   678.371936   912.134573  1042.963713   596.316159   978.965089  2392.438054  2260.767221  2824.777067  3601.347506  6356.399655   889.774263  2030.791491   891.559348   645.026043   573.355593   715.534762   813.288987  1208.950654  1659.323573  3158.862293   346.869342   490.716025   911.819711   385.290049   605.551861   711.631551   397.674926   442.426018   454.554483   801.035166  1355.628818   911.124721   709.974617   447.134450   396.501571   932.585821   591.063350   670.748875   292.585958   255.552102   306.953490   250.995047   247.813780   228.579901   262.683257   214.397032   332.960114   155.188991   143.170506   224.233791   210.334696  1696.173698  1671.086997  2078.581452  1997.784674  1668.618172  2077.060640  2253.554910  1024.908125   682.166144   370.380022  1068.143845  1710.212380   176.906642   689.507127
  0.665000  2018.646449  2111.148983  1513.555646  1309.629232  1907.336563  1766.284257  2172.131985   896.136090   456.744544   816.466585   678.123534   908.957496  1054.674760   598.010160   981.479287  2398.589104  2263.125479  2830.080986  3599.091470  6391.828656   898.734257  2032.337040   875.807926   645.533800   573.538765   717.424974   815.879107  1212.017760  1665.315926  3177.951872   339.139327   482.915230   915.057510   383.967012   607.086048   714.590773   405.666493   446.329974   460.414328   801.918656  1370.258927   925.438255   693.510994   449.085124   396.334901   931.277722   590.130538   672.668144   285.852756   250.402242   299.829263   247.462690   244.312864   225.199964   257.410202   217.288416   336.560383   160.022583   147.797931   225.732774   210.779253  1718.089730  1690.984666  2098.274529  2014.473677  1693.345606  2110.189497  2286.665589  1026.307791   684.942454   378.375575  1112.941429  1747.422069   168.823283   675.231740
  0.672000  2055.006772  2152.760476  1539.635062  1326.740235  1945.564896  1803.868562  2217.444777   897.070169   456.869267   818.195567   679.840446   905.848518  1071.977019   601.141714   986.632928  2405.905724  2265.900820  2835.613489  3594.105542  6429.471374   911.194161  2034.643590   858.339146   645.854995   575.318970   721.366853   820.070058  1216.061935  1672.209948  3200.594187   349.409506   491.436347   933.039412   405.373126   624.853596   731.755570   440.186337   467.351191   487.201288   810.748339  1395.598501   947.674215   692.771301   470.231511   421.809033   951.664150   613.347255   693.058223   291.663725   255.377349   305.976570   249.728374   246.591698   227.609854   259.174872   234.908462   356.443748   180.483647   168.887563   240.147877   222.323965  1745.381206  1716.191918  2124.064118  2037.558109  1725.757569  2153.962702  2331.002653  1028.810069   689.302385   391.710475  1182.293892  1796.761453   162.281301   656.801090
  0.679000  2088.973522  2195.298523  1563.209742  1348.263770  1984.132677  1838.718057  2260.659933   898.148343   459.344722   826.316550   683.068112   908.649415  1090.271100   605.494604   996.042043  2405.905873  2268.123329  2832.910120  3581.694961  6439.585090   922.743380  2040.636837   847.576037   647.205785   577.427223   724.854246   825.761631  1217.640787  1677.067876  3218.286037   509.034023   630.508363  1045.394093   538.810566   717.444718   810.232982   601.381361   564.005971   610.173233   868.181586  1458.627880   986.727402   782.336071   587.331541   579.162985  1077.699587   757.820383   801.016465   404.630639   356.500596   428.799577   301.479902   293.154959   269.337390   317.865461   327.823572   457.066484   279.633719   274.190865   318.805799   289.634895  1766.018569  1739.032865  2150.516659  2062.727660  1756.042689  2198.745161  2381.799072  1031.863317   695.426464   405.137241  1245.229542  1843.706816   159.670189   632.803291
  0.685000  2112.146169  2226.782888  1578.697711  1366.698742  2012.411207  1861.999482  2290.527076   898.974165   462.690368   836.279839   686.262026   914.483368  1104.139164   609.409176  1005.561277  2401.179224  2269.412279  2825.614810  3567.883372  6429.520249   930.530205  2047.426254   843.850300   648.890883   579.065606   726.992637   830.842108  1217.180714  1679.358333  3228.141665   721.833110   816.113055  1188.191026   708.399191   833.223909   906.981230   800.844282   683.277026   761.979073   941.362977  1528.875828  1026.091352   905.710012   734.733716   779.122561  1237.749755   941.458791   936.262310   556.168146   492.403284   593.703203   371.145867   355.626903   325.025953   397.331864   444.299057   582.662076   402.882434   405.508690   417.682342   374.745242  1776.861101  1754.239500  2170.293629  2082.405239  1776.779294  2232.122868  2423.119098  1034.404114   701.003447   414.791070  1286.182404  1876.411736   160.022099   611.568764
  0.692000  2143.469602  2269.872129  1599.508673  1392.379403  2051.045299  1893.502325  2331.022173   900.109261   467.694066   850.660875   690.816119   923.194960  1123.146862   614.938326  1019.077301  2393.840253  2271.129042  2814.193964  3547.690213  6411.066055   940.998048  2057.366967   839.531049   651.302114   581.330769   729.824081   837.956145  1216.248721  1682.220101  3240.798116  1030.783355  1085.600778  1394.779384   959.794372  1004.556268  1049.930677  1095.706746   859.515741   986.306071  1047.253981  1629.410684  1082.853451  1090.055406   953.024402  1075.579673  1474.965215  1213.717461  1136.418134   776.279867   689.820647   833.250731   472.364575   446.352549   405.842327   512.820370   616.710596   768.497959   585.172810   599.793009   564.089715   500.849113  1790.869981  1774.643511  2197.470516  2109.630853  1804.748625  2277.970016  2480.783612  1037.935689   708.853900   427.930951  1340.767145  1920.788288   160.932112   581.519715
  0.699000  2173.414975  2311.125696  1619.395614  1416.931748  2087.997496  1923.888922  2369.827330   901.196375   472.771041   864.442587   695.243701   931.584686  1141.276658   620.321967  1032.039002  2386.845797  2272.815406  2802.338302  3527.480662  6390.511394   950.923190  2067.318857   835.371241   653.564408   583.515503   732.510686   844.765082  1215.361878  1684.903204  3252.449632  1326.592714  1343.622357  1592.572033  1213.016510  1176.963449  1193.647236  1392.277330  1036.696360  1211.845800  1148.631275  1725.625247  1139.129549  1276.537478  1172.786132  1374.276876  1713.854671  1488.022357  1337.805241   987.040550   878.830403  1062.635854   569.290593   533.189364   483.138338   623.374507   790.234581   955.503508   768.579617   795.290321   711.473376   627.842844  1804.280430  1793.991923  2223.636359  2135.903835  1831.324995  2322.116643  2536.856532  1041.321158   716.415867   440.471657  1392.173618  1963.273138   161.806270   552.053005
  0.706000  2203.346193  2352.340072  1639.276594  1441.463679  2124.917358  1954.228431  2408.599705   902.281329   477.789193   878.213421   699.666291   939.956978  1159.389615   625.732914  1044.990048  2379.866689  2274.508327  2790.395916  3507.206440  6369.621158   960.828289  2077.308595   831.229016   655.833110   585.682429   735.193938   851.569101  1214.475185  1687.597632  3264.026940  1622.170210  1601.441652  1790.202856  1467.463523  1350.188106  1338.025481  1690.229475  1214.705482  1438.444108  1249.928772  1821.786165  1195.569634  1464.018077  1393.592805  1674.402952  1953.899562  1763.645262  1540.156156  1197.620928  1067.693457  1291.844696   666.165799   619.963817   560.378954   733.844861   964.587554  1143.388674   952.850953   991.710797   859.561563   755.452663  1817.679107  1813.291013  2249.743640  2162.172496  1857.846975  2366.223633  2592.954934  1044.704244   723.962337   452.994928  1443.397701  2005.719692   162.682477   522.547290
  0.713000  2233.326286  2393.554151  1659.200490  1466.015726  2161.854804  1984.451115  2447.371930   903.363973   482.583418   891.987160   704.064742   948.291793  1177.526042   631.195679  1057.938710  2372.896075  2276.208550  2778.493166  3486.995697  6348.739266   970.735699  2087.282240   827.128589   658.138171   587.807037   737.883523   858.377814  1213.585436  1690.341681  3275.588453  1917.884946  1859.381646  1987.912059  1721.670628  1523.257792  1482.263654  1987.895072  1392.573565  1664.870083  1351.275891  1918.057352  1251.950562  1651.328206  1614.180505  1974.180192  2193.731517  2038.966417  1742.356271  1408.259720  1256.651431  1521.161348   763.145238   706.801564   637.694821   844.381750  1138.790995  1331.087649  1136.952341  1187.947989  1007.514223   882.953629  1831.080765  1832.569391  2275.722176  2188.428938  1884.355396  2410.254627  2648.978531  1048.088670   731.475428   465.515070  1494.547874  2048.171908   163.565334   493.090749
  0.720000  2263.317704  2434.785664  1679.119915  1490.586549  2198.809981  2014.664412  2486.159056   904.453173   487.332083   905.769393   708.437413   956.629291  1195.679754   636.651665  1070.887446  2365.907282  2277.904600  2766.593099  3466.814756  6327.876449   980.630219  2097.236514   823.019445   660.460740   589.954108   740.586966   865.187123  1212.706715  1693.054140  3287.141919  2213.664651  2117.374390  2185.674459  1975.642890  1696.163267  1626.372337  2285.289913  1570.271850  1891.096681  1452.643722  2014.342546  1308.279335  1838.464737  1834.571064  2273.669392  2433.347702  2314.027548  1944.388002  1618.952602  1445.647180  1750.518382   860.152096   793.651119   715.039372   954.951495  1312.838644  1518.618166  1320.881248  1384.009570  1155.327931  1010.333449  1844.486594  1851.826757  2301.700860  2214.680165  1910.846829  2454.251647  2704.937160  1051.477566   738.998502   478.017665  1545.655131  2090.634108   164.445955   463.640466
  0.727000  2293.321937  2476.069927  1699.007154  1515.205801  2235.808969  2044.897825  2524.988651   905.564278   492.038690   919.575542   712.743029   964.990333  1213.876754   642.060339  1083.837077  2358.859479  2279.583365  2754.692137  3446.713090  6307.103634   990.486294  2107.138187   818.866119   662.819222   592.186227   743.329972   871.996135  1211.861074  1695.653051  3298.693597  2509.576678  2375.471592  2383.560538  2228.806913  1868.510991  1770.035326  2581.767738  1747.397035  2116.635442  1554.052830  2110.620886  1364.456564  2024.987191  2054.343373  2572.270632  2672.218978  2588.216960  2145.815045  1829.778552  1634.714305  1979.947686   957.195610   880.509540   792.437121  1065.590307  1486.388743  1705.599874  1504.284739  1579.521447  1302.682757  1137.307361  1857.903153  1871.033311  2327.733338  2240.921408  1937.280744  2498.147339  2760.703266  1054.879427   746.565163   490.469523  1596.687138  2133.122832   165.316984   434.226654
  0.734000  2323.299497  2517.323494  1718.866676  1539.811492  2272.773534  2075.092047  2563.767731   906.685889   496.748239   933.358967   717.051253   973.341838  1232.066527   647.397563  1096.775681  2351.812273  2281.236500  2742.884457  3426.845670  6286.846399  1000.350490  2117.018104   814.718753   665.154308   594.415218   746.067092   878.794640  1211.001948  1698.273569  3310.470283  2805.257440  2633.364201  2581.281662  2478.968352  2038.944960  1912.000924  2874.940336  1922.716200  2339.782119  1655.386984  2206.817269  1420.322359  2209.107578  2272.350937  2868.348062  2908.366323  2859.193981  2344.868481  2040.436119  1823.627353  2209.198177  1054.152399   967.313945   869.770050  1176.147535  1658.533663  1890.759915  1686.481088  1773.522943  1448.584348  1262.985915  1871.309578  1890.269369  2353.738993  2267.151475  1963.517070  2541.593611  2815.978229  1058.272943   754.118860   502.923504  1647.994220  2175.577730   166.188162   405.362882
  0.741000  2351.675630  2556.378841  1737.639904  1562.977284  2307.400256  2103.212029  2599.907815   907.817334   501.289479   946.406275   721.191913   981.288031  1249.509379   652.233809  1108.996123  2345.287204  2282.897830  2731.972933  3408.747017  6269.519329  1009.850949  2126.416564   810.925588   667.293221   596.489273   748.656169   885.241553  1210.182831  1700.989008  3322.666883  3084.875345  2877.119184  2768.244147  2706.590295  2194.566727  2041.200995  3142.560422  2083.459198  2543.989718  1751.242578  2297.978699  1472.605616  2375.864238  2474.153638  3141.912520  3123.680055  3105.908036  2526.045740  2239.465266  2002.146393  2425.936013  1145.656183  1049.336791   942.724869  1280.490756  1817.842424  2060.856372  1856.236756  1953.352988  1582.552344  1378.210336  1884.212941  1908.832788  2378.538996  2292.222828  1987.858713  2581.404150  2866.990864  1061.467975   761.204958   514.879338  1698.273569  2215.347439   167.012326   379.962213
  0.749000  2383.567393  2600.336075  1758.536696  1586.461663  2339.808643  2126.923352  2630.987167   909.902826   507.129766   961.883366   726.007819   991.302505  1273.142993   657.202154  1122.130975  2340.545207  2287.922502  2719.621062  3389.261365  6255.347729  1022.184938  2138.102204   808.637962   669.952407   598.977134   752.089620   892.920941  1210.327744  1705.947816  3341.695368  3392.346799  3142.805398  2974.432111  2950.966060  2363.808453  2180.083692  3433.423340  2260.832340  2768.084109  1856.827140  2401.805371  1534.518003  2551.795840  2704.633772  3452.110887  3356.605470  3371.240497  2721.045911  2455.400229  2196.190059  2662.832439  1243.359074  1137.131974  1020.021811  1391.154975  1999.636739  2250.070423  2054.426819  2159.736902  1731.224209  1505.355090  1902.654618  1933.003068  2410.495132  2324.071825  2015.911937  2625.343204  2924.635708  1065.146774   768.706128   530.155636  1766.674668  2251.985222   167.782623   356.048271
  0.756000  2397.490740  2619.687617  1767.143905  1590.109318  2337.139398  2116.892934  2619.925439   912.903324   511.563495   970.763639   728.501976   998.485759  1293.876171   658.246726  1126.311198  2345.170975  2298.311740  2713.887095  3382.649124  6262.119412  1031.794474  2146.101445   812.733546   671.816170   600.495413   754.956082   897.399038  1213.176996  1712.979227  3363.381624  3508.971632  3237.370849  3054.254651  3031.993508  2425.545454  2226.600200  3539.031744  2332.066298  2854.974270  1897.342801  2450.658381  1570.032388  2602.117062  2816.804647  3597.578704  3438.395560  3460.372686  2786.997855  2529.602349  2263.830602  2748.897672  1272.731274  1164.066717  1041.623503  1422.363669  2087.748051  2329.899222  2161.362916  2262.626439  1793.044209  1556.400657  1920.889765  1952.004284  2435.019165  2347.423583  2030.179352  2642.996907  2951.173484  1066.990644   770.804211   541.548543  1826.856136  2247.141153   167.711843   356.781334
  0.763000  2410.161197  2637.324631  1774.872094  1592.051387  2331.244349  2103.580981  2604.784071   916.061401   516.011789   979.273766   730.846971  1005.607322  1314.911693   658.837557  1129.788905  2350.755483  2309.413999  2708.786428  3377.185166  6271.347404  1041.237339  2153.872252   817.517713   673.651323   602.001920   757.842213   901.691988  1216.338277  1720.415503  3385.975361  3611.475527  3319.005668  3124.791682  3096.773624  2476.920485  2264.033407  3626.338542  2393.278629  2928.588986  1933.057308  2495.844215  1603.662074  2639.750540  2918.087244  3727.527559  3505.248427  3531.907201  2840.163708  2592.977285  2321.865410  2823.636234  1296.748072  1186.242402  1058.789045  1447.248161  2167.280465  2399.415672  2260.268331  2356.191874  1846.561730  1600.099653  1939.579993  1970.964968  2459.509820  2370.444983  2043.152004  2657.905221  2974.655330  1068.710312   772.475824   552.931614  1888.962537  2238.448411   167.563483   360.147096
  0.771000  2425.793558  2659.109831  1784.327328  1594.074070  2322.783768  2085.847557  2584.426999   919.997171   521.780103   990.051776   733.740255  1014.578119  1341.782361   658.934414  1134.096757  2357.897609  2323.448360  2703.171968  3370.674849  6284.811497  1052.360535  2163.319737   823.685452   675.903335   603.981763   761.473626   907.060951  1220.316440  1729.945987  3415.498734  3741.088808  3422.601819  3214.511573  3163.435757  2532.696426  2303.325683  3718.205690  2461.410761  3008.394539  1978.771538  2553.725541  1645.139009  2676.158845  3032.709956  3872.370720  3575.224578  3605.147600  2895.363569  2672.777176  2394.925952  2917.876244  1326.991767  1214.254126  1080.456004  1478.686333  2257.604003  2476.932257  2374.259681  2463.328242  1905.471981  1647.687554  1963.559538  1995.045841  2490.832806  2399.181724  2057.644874  2672.753632  2999.998927  1070.762128   774.494931   567.967296  1976.078004  2226.766646   167.237185   365.915410
  0.778000  2432.320416  2668.562829  1787.687540  1592.914313  2311.347872  2069.305629  2564.777732   921.973735   525.387414   996.677503   735.096186  1019.407362  1358.552426   658.205077  1136.220172  2362.625003  2332.635671  2700.263858  3364.972472  6293.486953  1058.105230  2169.186622   827.799290   676.904470   604.639836   763.575658   910.182223  1222.619265  1735.326797  3436.123133  3817.169964  3486.261964  3270.816505  3202.475607  2567.856610  2327.842116  3770.034313  2504.007518  3055.129349  2009.498328  2592.483163  1674.400866  2697.954774  3097.546101  3951.272368  3615.407646  3646.133244  2927.821279  2717.964649  2435.825765  2971.686423  1343.382746  1230.284348  1092.786640  1496.946961  2309.702039  2523.679733  2438.950986  2525.848448  1939.634830  1675.093174  1979.826391  2011.716217  2511.513829  2418.228835  2065.135241  2677.967846  3012.019694  1071.342006   774.924010   579.837784  2053.858936  2215.348929   166.122038   368.242227
  0.786000  2428.803295  2665.045559  1783.306897  1584.783047  2282.897383  2038.174421  2526.533604   922.365710   528.658852  1002.426520   735.024735  1021.546423  1373.808235   655.344650  1136.504710  2367.728800  2342.295349  2699.179649  3354.764581  6301.726699  1059.967130  2174.540460   832.313970   676.640943   603.506006   765.014365   912.369713  1224.199161  1738.536358  3461.241424  3872.411847  3541.375101  3323.047459  3234.413564  2603.373528  2352.291644  3805.681467  2545.490861  3092.024028  2043.943107  2635.512650  1711.443067  2718.010843  3140.104711  3993.885815  3645.431399  3673.900962  2954.620719  2745.638192  2459.340394  3006.072938  1351.019293  1240.628287  1100.526378  1509.604603  2347.073406  2564.133704  2481.486201  2572.748959  1965.285391  1695.222706  1998.461932  2031.785697  2533.691823  2439.011782  2067.808956  2671.639621  3012.754321  1069.827154   772.874132   597.924367  2192.546576  2192.850560   162.435733   366.141535
  0.793000  2424.858510  2660.692930  1779.130250  1578.094661  2260.555029  2014.282048  2497.131526   922.367945   530.839711  1006.291062   734.789371  1022.637039  1384.233981   652.909055  1136.417761  2371.354401  2349.046618  2698.835731  3346.831799  6307.263374  1060.393825  2178.076655   835.525468   676.287860   602.440462   765.919909   913.757533  1225.213930  1740.494519  3479.394615  3907.858133  3578.540385  3358.869553  3254.699111  2627.710402  2368.966341  3826.518059  2573.578954  3115.077615  2068.498582  2666.142583  1738.453060  2731.343508  3164.351583  4015.164673  3663.736284  3690.006137  2971.721292  2762.325108  2473.165393  3027.184904  1355.058551  1246.998012  1105.254143  1517.628878  2369.407415  2590.416670  2505.732477  2601.410151  1980.977207  1707.390696  2011.807561  2046.238333  2549.451590  2453.628927  2068.593949  2664.802372  3010.817468  1068.469882   771.073774   611.624420  2300.588787  2175.536156   159.489512   363.739282
  0.801000  2419.667840  2655.006647  1773.695499  1569.351405  2231.307626  1982.957572  2458.650172   922.310725   533.635095  1011.328697   734.523311  1024.054214  1397.889555   649.513155  1136.277989  2376.121134  2357.798666  2698.633969  3336.198032  6314.255595  1060.442924  2182.495892   839.741156   675.847456   601.026379   767.100528   915.574729  1226.567328  1743.126065  3503.085971  3954.208195  3627.150953  3405.734599  3279.621899  2658.714354  2390.149981  3850.978017  2609.154880  3143.138885  2100.611776  2706.221044  1773.824096  2748.098373  3192.398250  4037.724435  3685.739040  3708.827794  2992.796600  2784.095109  2491.221726  3054.783642  1360.345930  1255.311966  1111.448854  1528.161913  2395.961285  2623.079419  2533.774972  2635.917664  1999.890804  1721.946299  2029.273361  2065.061629  2570.197880  2472.517788  2068.990320  2654.633522  3006.946445  1066.703424   768.705755   629.831925  2445.863038  2152.885497   155.636184   360.119157
  0.809000  2414.676696  2649.561167  1768.516451  1560.926586  2203.102559  1952.857822  2421.565801   922.286585   536.560789  1016.238928   734.283105  1025.425717  1411.023587   646.276027  1136.138290  2380.743176  2366.299778  2698.485255  3325.967789  6320.884228  1060.427055  2186.700106   843.854547   675.377548   599.663816   768.208429   917.341337  1227.810532  1745.696217  3525.694907  3998.845220  3673.975468  3450.847268  3303.189278  2688.254118  2410.317361  3873.945773  2642.979324  3169.647455  2131.529152  2744.865119  1807.605326  2763.997018  3218.646646  4058.473706  3706.475794  3726.452291  3012.737930  2805.084586  2508.624792  3081.369400  1365.476400  1263.267845  1117.422655  1538.300812  2420.946509  2654.027343  2560.024261  2668.437660  2017.703950  1735.658795  2046.089917  2083.027214  2590.180933  2490.533143  2069.271654  2644.758224  3003.062904  1064.992473   766.419172   647.280663  2585.163116  2131.088972   151.914489   356.638990
  0.817000  2409.509569  2643.926442  1763.159484  1552.169025  2173.784822  1921.658367  2383.038849   922.287032   539.796799  1021.383554   734.026060  1026.854143  1424.626559   642.961338  1135.992408  2385.559231  2375.189811  2698.333263  3315.387964  6327.709556  1060.423255  2191.046029   848.159716   674.844757   598.260053   769.345015   919.188485  1229.047775  1748.386472  3548.997343  4045.201838  3722.613156  3497.680426  3327.484429  2718.749344  2431.131303  3897.633851  2677.862346  3196.987212  2163.631916  2785.029709  1842.430234  2780.384719  3245.700896  4079.831243  3727.856576  3744.606376  3033.293486  2826.907337  2526.704371  3108.982146  1370.816678  1271.498054  1123.632342  1548.817605  2446.712255  2685.934603  2587.085366  2701.960504  2036.056519  1749.801785  2063.550949  2101.549208  2610.918581  2509.105206  2069.556415  2634.589374  2999.061346  1063.206345   764.044896   665.285811  2728.766203  2108.463645   148.041695   353.081189
  0.824000  2405.594438  2639.609873  1758.969575  1545.474827  2151.435912  1897.806972  2353.663445   922.244564   542.190596  1025.269702   733.758509  1027.932316  1434.922069   640.388727  1135.883629  2389.196604  2381.917685  2698.193192  3307.318687  6332.924962  1060.433090  2194.358110   851.390362   674.432963   597.230382   770.264566   920.588374  1230.004132  1750.433445  3566.781282  4080.589712  3759.736121  3533.436954  3346.010149  2741.993666  2446.999252  3915.695250  2704.451978  3217.837214  2188.142538  2815.650403  1868.998259  2792.883813  3266.331851  4096.103013  3744.158447  3758.487105  3048.955202  2843.554914  2540.468574  3130.046427  1374.803185  1277.834177  1128.375754  1556.832045  2466.355413  2710.268497  2607.725263  2727.528214  2050.068080  1760.581136  2076.881677  2115.674317  2626.735866  2523.230612  2069.774568  2626.833916  2995.995283  1061.847582   762.252659   679.016784  2838.300467  2091.177702   145.095345   350.317135
  0.832000  2400.479019  2633.943260  1753.422022  1536.708027  2122.186869  1866.548806  2315.219045   922.166556   545.274429  1030.331478   733.372197  1029.333770  1448.360831   637.006015  1135.744676  2393.940538  2390.689403  2698.213160  3296.734989  6339.762211  1060.469747  2198.730856   855.587199   673.901886   595.906265   771.496221   922.412425  1231.271252  1753.106564  3590.058982  4126.932919  3808.348775  3580.268621  3370.299637  2772.453725  2467.841506  3939.369619  2739.305496  3245.150447  2220.246643  2855.722308  1903.864890  2809.300423  3293.352127  4117.399454  3765.493333  3776.690960  3069.470823  2865.349054  2558.476925  3157.622218  1379.972547  1286.161393  1134.596169  1567.328125  2492.115796  2742.185593  2634.781897  2761.037350  2068.478614  1774.726212  2094.340175  2134.213299  2647.434473  2541.678548  2070.136964  2616.755664  2992.043793  1060.069203   759.912953   696.941838  2981.684208  2068.527192   141.242901   346.723422
  0.840000  2395.610809  2628.575265  1748.186797  1528.428495  2094.243616  1836.735159  2278.561890   922.164172   548.285805  1035.197228   733.061582  1030.668616  1461.331099   633.878484  1135.657877  2398.600876  2399.166524  2700.056136  3286.401927  6346.350312  1060.635075  2203.242630   859.678984   673.532784   594.678223   772.674754   924.176425  1232.525334  1755.683273  3612.289131  4171.467423  3855.067194  3625.284731  3393.914998  2802.001834  2488.436550  3962.340951  2773.166299  3271.490037  2251.172215  2894.235849  1937.958896  2825.484276  3319.355845  4137.837887  3785.925210  3794.226646  3089.329004  2886.344790  2575.866878  3184.157908  1385.017484  1294.176131  1140.672266  1577.530205  2517.222464  2773.298919  2661.018372  2793.465853  2086.599320  1788.600534  2111.171782  2152.385116  2667.286396  2559.214830  2071.110457  2607.730627  2988.844216  1058.385521   757.670924   713.712126  3118.985593  2046.996653   137.605248   343.750939
  0.848000  2392.238826  2624.687850  1743.966937  1521.933824  2069.671601  1810.785234  2246.850580   922.557786   551.082864  1039.806604   732.652545  1032.032371  1473.641992   630.954057  1136.061549  2403.956205  2407.992482  2705.668807  3275.858164  6352.814436  1060.975492  2208.186090   864.199474   674.272105   594.352782   774.394944   926.267356  1233.802587  1758.504361  3633.744419  4214.813709  3900.668025  3669.258952  3417.499661  2831.509113  2509.606183  3985.177875  2806.878686  3297.389150  2282.219231  2932.025492  1972.471774  2842.061520  3344.746828  4157.544374  3805.675805  3811.496198  3109.021187  2907.497287  2593.256235  3210.527599  1390.318274  1302.803904  1147.323251  1588.284373  2542.358339  2804.607153  2687.049806  2825.560272  2105.132043  1802.666187  2128.413320  2170.818150  2686.922848  2575.878203  2073.288262  2600.291371  2986.840606  1057.342738   756.157860   729.070380  3252.131939  2029.891163   135.107255   341.639966
  0.856000  2394.531369  2626.319528  1743.428111  1521.889865  2057.628781  1799.227297  2233.559787   923.977271   552.875549  1043.318808   731.790066  1033.337712  1483.187973   628.483668  1138.131544  2411.524802  2417.803556  2723.973393  3264.599442  6358.704567  1061.648875  2214.218974   870.010406   678.613633   597.139448   777.830109   929.311812  1235.006824  1762.219220  3652.347922  4253.487289  3941.938579  3709.128201  3440.543115  2860.503793  2532.132268  4007.107615  2839.529216  3321.530223  2313.499600  2967.014313  2007.910162  2859.566212  3367.557824  4174.205363  3822.649717  3827.429116  3127.803206  2928.784788  2610.278130  3235.968947  1396.302134  1313.457638  1155.785546  1600.679457  2567.034364  2836.075425  2711.884081  2855.977118  2124.603391  1817.026883  2146.916091  2189.752758  2705.677450  2589.249313  2079.442590  2598.422468  2988.843620  1058.357060   757.033303   739.396289  3369.497657  2029.282451   136.441542   342.257023
  0.864000  2398.274988  2628.921866  1743.150353  1521.779746  2048.027068  1791.010350  2224.386036   922.153220   553.207956  1045.430228   730.729550  1033.062190  1490.021050   624.590367  1139.232069  2416.545004  2425.009161  2745.867670  3253.065050  6363.523602  1060.623303  2218.161374   873.551443   679.642782   598.208271   778.553411   930.105671  1235.074997  1765.748113  3669.136763  4288.096130  3979.802430  3745.256364  3461.196721  2887.437344  2551.756799  4026.388228  2869.400084  3344.355822  2342.227101  2999.530733  2041.360438  2875.149846  3387.001157  4186.989069  3836.082518  3839.960694  3144.416511  2945.757210  2624.154389  3257.915676  1400.442421  1321.656257  1161.977425  1610.048413  2588.664889  2865.048647  2733.821273  2883.161902  2141.730338  1829.560548  2162.898630  2206.829786  2722.623646  2599.921227  2086.395621  2599.582374  2992.143631  1056.830734   755.255371   747.153461  3474.272490  2031.908184   134.939002   342.898369
  0.872000  2404.982597  2633.997202  1744.094938  1521.373838  2041.623592  1786.724776  2219.828367   916.030109   554.881021  1046.178639   731.480792  1030.990034  1495.732665   617.919005  1138.799712  2417.512983  2428.495139  2771.568000  3241.149485  6366.805434  1057.468876  2218.697518   875.910893   676.810965   597.912669   776.602775   927.888229  1233.728305  1768.731922  3683.716357  4317.374527  4013.045132  3775.709569  3478.220701  2910.821736  2566.393316  4041.553438  2894.750237  3365.132809  2366.741747  3028.419018  2071.410567  2887.185514  3401.403725  4194.295406  3844.183981  3847.363889  3157.425821  2956.189215  2633.422315  3274.701238  1401.645392  1325.740665  1164.366454  1614.603400  2605.634034  2889.823020  2751.434445  2905.590832  2155.009955  1839.332879  2174.944282  2221.012563  2737.239599  2607.654631  2095.004916  2606.057227  2998.602092  1051.532254   750.352442   752.844810  3559.601903  2039.107680   128.886476   344.474055
  0.880000  2426.451296  2655.357718  1757.072359  1529.846042  2051.637173  1797.180325  2232.843488   916.063860   581.100509  1050.776243   747.059733  1033.239365  1519.125104   607.383549  1140.546501  2420.571595  2435.219735  2805.455327  3228.397667  6369.794011  1058.113575  2219.171673   896.945149   688.212737   611.680597   787.930638   930.115953  1234.523132  1771.199107  3697.682321  4345.171452  4043.275416  3799.504042  3494.233489  2930.159271  2578.754425  4054.427743  2916.029096  3382.619917  2389.056385  3053.669930  2099.989802  2895.931304  3412.041366  4199.553430  3848.026097  3852.727711  3166.584373  2966.710329  2643.159926  3290.871382  1402.835250  1330.122203  1166.941971  1620.043367  2621.429265  2911.669612  2767.520547  2926.268578  2167.529315  1849.563420  2188.104838  2235.357463  2753.455341  2618.593574  2113.255560  2626.819313  3020.283282  1050.076261   755.833685   763.929039  3616.680503  2070.382237   127.070975   357.002728
  0.888000  2456.516922  2686.860561  1777.548045  1543.559134  2071.631700  1816.526353  2256.463915   920.209587   616.670139  1057.913825   768.340304  1038.373411  1553.957313   596.234351  1143.480688  2425.313443  2444.405109  2842.548490  3215.797842  6372.576356  1061.133444  2219.879478   926.088914   705.858245   631.120428   805.055946   935.026333  1236.782968  1773.476005  3710.850775  4369.079769  4070.163667  3819.649518  3508.142233  2946.510315  2589.760423  4064.379036  2933.861017  3397.043645  2410.684377  3077.240288  2126.795202  2901.988924  3418.715000  4201.572537  3848.484457  3855.061233  3172.620535  2975.533307  2651.098371  3304.404914  1403.651834  1335.005313  1169.989854  1626.110375  2634.672523  2930.268347  2780.887783  2943.857908  2178.099751  1858.691722  2202.438116  2249.465734  2771.010995  2631.304264  2136.519849  2654.963434  3050.084412  1051.315665   766.377300   776.795223  3655.543625  2116.247118   128.038637   373.833217
  0.896000  2488.363981  2723.919153  1801.668555  1557.415128  2095.202953  1839.276254  2284.195870   924.998745   621.584021  1066.293344   771.919191  1044.735461  1595.590264   593.747348  1145.051867  2430.984825  2455.516160  2877.234817  3205.057383  6374.846101  1064.127535  2220.703065   937.146246   708.280802   633.814707   808.352083   938.795060  1239.623129  1776.357293  3722.437024  4373.380244  4087.159038  3840.676546  3511.831462  2960.335612  2600.347996  4062.595665  2945.585847  3405.428529  2435.747683  3103.866875  2150.934190  2902.032435  3411.234617  4185.813963  3839.794397  3841.407895  3171.898127  2970.821857  2644.339204  3302.211165  1400.766075  1340.185851  1173.580363  1630.779207  2634.313703  2939.451933  2781.237662  2947.359085  2177.595496  1857.906282  2218.943387  2262.473851  2791.029513  2643.834352  2159.920186  2683.267295  3080.389798  1053.099111   768.659338   780.270845  3682.815731  2168.200314   128.211640   377.708189
  0.915000  2556.437552  2804.403603  1854.167134  1586.822718  2146.145552  1888.510585  2344.334126   935.289189   621.600002  1084.715649   773.430243  1058.690771  1686.011851   593.034551  1147.783697  2443.296015  2479.605526  2974.940240  3175.383508  6380.971670  1072.262377  2223.054171   954.443663   708.132684   633.823499   810.695589   946.359336  1246.076375  1782.541871  3754.787445  4376.103580  4120.123684  3885.971904  3514.264226  2998.533547  2630.695403  4048.212767  2974.915802  3424.891531  2490.374297  3161.647618  2218.900174  2897.675335  3378.751874  4126.421511  3807.840645  3789.444566  3164.693415  2956.479192  2625.156343  3292.395473  1393.430680  1351.271123  1181.346104  1640.286446  2622.564733  2958.681583  2772.033215  2946.434617  2167.411596  1847.760826  2254.802287  2299.192399  2834.687829  2679.392099  2226.664126  2763.767242  3166.822493  1056.916863   770.605281   783.049837  3755.740225  2280.285209   128.212208   378.607139
  0.924000  2589.409351  2843.360603  1879.572868  1601.096839  2170.788050  1912.285984  2373.449206   940.221027   621.599928  1093.577072   774.129182  1065.435484  1729.981899   593.017042  1149.086282  2449.225783  2491.293848  3020.977378  3161.398768  6383.636594  1076.028496  2224.079520   962.824672   708.073452   633.823425   811.813772   950.012952  1249.151900  1785.599142  3769.922256  4373.655617  4133.334458  3907.059729  3512.194455  3015.727699  2644.882202  4037.742615  2987.003922  3431.863487  2516.739368  3189.531863  2250.987589  2893.984616  3359.521925  4093.324840  3790.236712  3760.468960  3159.252107  2947.100401  2613.447905  3284.846246  1389.235705  1356.306076  1184.908524  1644.307077  2613.403797  2965.091467  2764.155567  2942.249179  2159.648687  1840.402037  2272.139639  2316.503525  2855.778933  2696.117163  2258.214504  2801.721990  3207.628429  1058.729962   771.535486   783.974081  3789.452910  2334.398478   128.212208   378.497802
  0.934000  2627.069950  2887.842059  1908.580065  1617.325097  2199.020684  1939.308941  2406.616211   945.840627   621.600002  1103.666499   774.879754  1073.193997  1780.879050   593.016930  1150.469258  2455.853969  2504.527569  3072.490990  3145.782948  6386.048794  1080.218032  2225.067019   972.339213   707.976818   633.823425   813.069791   954.134539  1252.592206  1788.990796  3786.531687  4356.797636  4138.232470  3928.036094  3501.695693  3032.803535  2660.329640  4016.501307  2995.862663  3434.176743  2546.658218  3221.026659  2286.946476  2885.687053  3328.130245  4043.398201  3764.069676  3716.837764  3148.019314  2927.256525  2591.025233  3265.659809  1381.818503  1361.101121  1188.279912  1646.678746  2594.144344  2965.496480  2746.514678  2928.200662  2143.563032  1825.792938  2291.870713  2335.882187  2879.781723  2714.849412  2293.759435  2844.222784  3253.311813  1060.708761   772.595406   784.947202  3825.559616  2395.687252   128.212199   378.352217
  0.944000  2664.174736  2931.689024  1937.240064  1633.304358  2226.809114  1965.819895  2439.317256   951.327085   621.599965  1113.615334   775.636211  1080.870330  1831.257045   593.016967  1151.780337  2462.330014  2517.520487  3123.373985  3130.324185  6388.226748  1084.325686  2225.983143   981.680527   707.896799   633.823574   814.295411   958.183706  1256.006062  1792.325228  3802.830875  4336.205721  4140.209258  3947.919309  3488.775194  3048.829436  2675.336003  3992.614746  3003.031015  3434.632123  2576.113343  3251.976371  2322.454602  2876.226008  3294.283450  3990.501165  3736.371994  3670.621812  3135.354519  2905.199528  2566.466630  3243.837357  1373.870075  1365.595460  1191.449314  1648.503542  2572.496533  2963.733077  2726.476192  2911.500931  2125.528157  1809.512973  2311.300486  2355.011404  2903.414071  2733.282745  2328.936905  2886.186540  3298.442364  1062.637940   773.628950   785.889998  3860.681057  2455.882579   128.212189   378.208794
  0.955000  2705.851495  2980.953753  1969.509423  1651.237607  2257.954776  1995.579898  2476.131171   957.439467   621.599965  1124.773547   776.514858  1089.461818  1887.765825   593.016893  1153.216809  2469.544709  2532.027960  3180.983067  3112.614751  6390.609741  1088.934019  2226.970494   992.178991   707.815588   633.823350   815.657675   962.711871  1259.841025  1796.022952  3821.236491  4314.707816  4142.855406  3969.743252  3475.050628  3066.256046  2691.743374  3966.727853  3011.029959  3435.011804  2608.948648  3286.609352  2362.466007  2866.114378  3257.967830  3933.486938  3706.309497  3620.912731  3121.623695  2881.503701  2540.264428  3220.701516  1365.116388  1370.208561  1194.651127  1650.355756  2549.983263  2962.372899  2705.558836  2894.393206  2106.745839  1792.526990  2333.082855  2376.563400  2929.888964  2753.986120  2368.630320  2933.603823  3349.428773  1064.795107   774.773583   786.949545  3900.539279  2523.791790   128.212189   378.043018
  0.965000  2742.055953  3023.686409  1997.451186  1666.714996  2284.982949  2021.773309  2508.234978   962.788984   621.600077  1134.344116   777.262375  1096.711829  1936.132163   593.016967  1154.471487  2475.695163  2544.387281  3231.163323  3096.575737  6392.796040  1092.915311  2227.766961  1001.417786   707.675815   633.823574   816.819891   966.573209  1262.984872  1798.971295  3837.266862  4307.650030  4150.490761  3987.465799  3470.745385  3080.549240  2704.558969  3953.189850  3020.501435  3438.166380  2636.438310  3316.228092  2396.678776  2861.579955  3237.994015  3899.468184  3687.654734  3591.693938  3114.473224  2868.161500  2525.809705  3209.558725  1358.687580  1372.738630  1196.116209  1651.494801  2541.805804  2967.326343  2698.020935  2890.754640  2099.721879  1785.919219  2351.821959  2394.992560  2952.617109  2771.737874  2402.602881  2974.661291  3393.401206  1066.638678   775.757432   787.891001  3936.630487  2584.329545   128.212208   377.893858
  0.975000  2776.966095  3064.858913  2024.300694  1681.741029  2311.102003  2047.186643  2539.187372   968.085602   621.599928  1143.747121   778.025687  1103.709564  1981.914192   593.016706  1155.998632  2482.016534  2556.657195  3279.640079  3081.460595  6396.222115  1096.932441  2229.002416  1010.373905   707.592443   633.823425   818.000436   970.435068  1266.142428  1802.070886  3853.482604  4323.609173  4176.226556  4011.878371  3481.212258  3100.239933  2719.017267  3956.997395  3039.191365  3452.641070  2664.025724  3345.795870  2429.981083  2864.395678  3234.736919  3887.256384  3680.228293  3581.207693  3116.724193  2870.249748  2525.963783  3215.710521  1357.239634  1378.344297  1199.926212  1657.446474  2547.990084  2984.305918  2704.918683  2902.355194  2104.531825  1789.440513  2370.126545  2412.998676  2974.863648  2789.223790  2435.221672  3014.428020  3435.997069  1068.598330   776.766241   788.896754  3974.442184  2642.896771   128.212189   377.757102
  0.986000  2817.202210  3112.307489  2055.166960  1699.219942  2341.290712  2076.553702  2574.832141   974.356979   621.600710  1154.804379   778.955072  1111.869141  2033.850551   593.003258  1158.148050  2489.827871  2571.295798  3335.821033  3064.864874  6402.029395  1101.813391  2231.169790  1020.714268   707.567111   633.824170   819.440112   975.082144  1270.024478  1806.026995  3873.342276  4366.677999  4227.049649  4049.483836  3510.077000  3131.181598  2739.185095  3980.771005  3072.621822  3483.529389  2697.487175  3381.265402  2469.148040  2876.267135  3248.531222  3895.437717  3683.803678  3588.286042  3130.154610  2888.975739  2541.074455  3241.015375  1361.106336  1389.170438  1207.736358  1670.499295  2570.047975  3018.013537  2728.089392  2932.036817  2122.414708  1803.945303  2391.577065  2434.293926  3001.008332  2810.123265  2473.215461  3061.051369  3486.016691  1071.097702   778.012872   790.233761  4021.048248  2710.159123   128.212245   377.659462
  0.997000  2853.121459  3154.857457  2082.736194  1714.718640  2368.218005  2102.579474  2606.551647   979.866683   621.915273  1164.286733   779.905096  1119.090617  2080.619633   592.896529  1160.162017  2496.891022  2584.362924  3385.237753  3052.050471  6408.766508  1106.141284  2234.007716  1029.950008   707.677379   634.106845   820.826441   979.277939  1273.720860  1809.797734  3891.915083  4408.043325  4274.241924  4083.936810  3542.118073  3162.328005  2759.625912  4009.999037  3107.066154  3516.362607  2727.080584  3412.472308  2504.058480  2893.779278  3269.541562  3913.396001  3696.534336  3605.415821  3148.602545  2908.072770  2556.932569  3266.141415  1365.676224  1399.388760  1215.403005  1683.140695  2596.032023  3053.276241  2754.627764  2964.886725  2143.765688  1821.329147  2410.346419  2453.502268  3024.089634  2829.478681  2508.432865  3104.434609  3532.739580  1073.440909   779.367015   791.814327  4058.826268  2768.684924   128.232390   377.938598
  1.007000  2907.458544  3220.497370  2124.514580  1736.927629  2408.361882  2140.225470  2653.101087   986.744910   625.468045  1176.181883   782.876164  1128.431559  2155.868113   592.368692  1163.821444  2507.732511  2604.237199  3442.727625  3042.913675  6421.118379  1111.186892  2240.063101  1044.136733   709.795728   637.223944   823.933780   985.839516  1280.178726  1818.249077  3916.762173  4476.117790  4343.407452  4135.892689  3591.766953  3207.255900  2791.166008  4060.665965  3157.393932  3564.825654  2767.320275  3454.068601  2546.001673  2935.434878  3314.948678  3959.150314  3739.756048  3652.968109  3187.421560  2945.574522  2590.322793  3311.973214  1378.428340  1417.008042  1228.977889  1705.163121  2640.263736  3105.024993  2797.608674  3016.727269  2181.067169  1851.544231  2434.559464  2477.257699  3055.604696  2855.477929  2556.463480  3164.027035  3597.887456  1077.608764   783.431157   795.103833  4087.072611  2842.799425   128.478296   379.755646
  1.018000  2978.883982  3308.888078  2180.671394  1765.622944  2461.875230  2186.057270  2713.185549   994.526744   632.921681  1190.384179   787.554532  1139.293090  2260.746956   591.229722  1168.456599  2521.602809  2629.532218  3505.895138  3036.680222  6437.428594  1116.669625  2248.030305  1063.348204   714.534819   642.657429   828.910694   994.597822  1289.201528  1831.051558  3946.315348  4572.396874  4435.041547  4205.258787  3659.234643  3266.069889  2834.124863  4133.435786  3224.101365  3628.774583  2817.929089  3505.154550  2594.263256  3004.530966  3387.279809  4035.829008  3817.371428  3734.411299  3248.148263  3002.460897  2643.697560  3379.621506  1399.544328  1442.015320  1249.739900  1737.064868  2704.542279  3174.159825  2858.237028  3089.165092  2236.214429  1896.062940  2463.235110  2504.678071  3094.256520  2887.720764  2617.632747  3240.151107  3682.056665  1083.380207   790.136606   800.187737  4099.883735  2930.955589   129.260235   383.632258
  1.029000  3030.604720  3376.677632  2225.389034  1788.009554  2504.543960  2211.448848  2756.588459   999.281555   640.337169  1201.725453   789.761543  1146.092638  2347.941548   589.827672  1169.453785  2529.020309  2643.976808  3552.696705  3026.802838  6443.914175  1120.354459  2249.340564  1078.697965   719.576254   643.979311   832.971260  1000.566781  1295.008659  1838.673651  3965.019286  4650.414884  4508.294761  4258.035123  3715.669215  3315.156400  2870.141864  4194.880426  3281.233907  3681.213856  2857.505083  3542.792201  2633.437514  3069.798350  3453.478515  4106.822610  3889.549375  3809.682429  3301.014304  3047.147095  2690.712810  3433.679044  1414.717287  1460.696161  1269.769818  1762.777418  2763.480544  3235.229552  2912.541628  3154.903948  2288.048565  1937.690079  2482.986748  2524.782419  3120.752871  2912.904620  2669.769526  3304.271996  3753.235340  1086.798683   794.521794   804.378390  4094.664156  2997.468412   131.102093   388.429202
  1.040000  3086.532354  3443.493843  2269.078195  1811.907291  2545.278370  2250.801772  2803.900838  1003.249139   647.631213  1212.181449   793.793127  1152.492613  2446.609586   589.413047  1171.272844  2532.401383  2658.241391  3597.100675  3021.098375  6448.207498  1122.907251  2250.953913  1094.114184   722.029582   644.847229   836.351439  1005.009115  1298.362315  1844.861358  3979.545534  4714.885056  4569.495320  4299.754500  3761.922121  3356.112540  2900.800407  4245.645404  3328.777850  3722.659051  2891.856432  3573.718071  2668.437958  3126.894236  3510.087430  4166.240096  3949.792385  3874.015510  3344.235122  3084.165156  2727.493346  3480.444252  1428.200305  1478.148550  1284.312606  1784.982830  2814.283669  3288.053274  2959.295809  3212.473392  2334.361523  1974.248141  2499.668002  2541.463375  3146.258295  2933.452427  2717.073560  3359.774351  3813.243806  1089.489907   798.924267   807.825178  4082.149863  3052.143455   133.510269   393.042788
  1.051000  3137.117624  3503.092229  2308.106422  1832.949370  2581.931949  2288.849354  2846.937478  1005.756781   653.093308  1219.941080   796.707273  1157.334000  2541.364729   588.396564  1171.360388  2532.938719  2670.094967  3635.668457  3015.823662  6449.488997  1123.559400  2250.249833  1107.267514   721.987635   644.942224   838.704184  1007.862315  1300.547272  1849.068999  3988.957405  4763.106406  4616.606534  4331.654012  3796.232641  3388.172686  2924.869359  4283.034801  3365.781307  3753.587604  2920.157015  3598.714173  2698.060572  3171.531558  3553.042114  4209.499955  3994.362354  3921.051919  3375.432491  3111.501038  2754.232883  3516.143560  1438.458115  1493.269205  1294.899434  1802.599132  2854.260504  3330.285549  2995.764017  3258.480430  2371.708900  2003.166676  2512.882650  2554.338872  3166.011572  2948.979139  2758.572400  3405.613899  3863.698542  1090.663001   802.076608   810.318291  4064.938724  3096.581101   135.142263   396.567173
  1.063000  3180.848062  3558.765650  2345.064282  1850.641072  2618.765533  2316.409498  2885.234356  1005.967036   656.128153  1224.174872   795.518905  1159.827188  2636.167407   584.549718  1166.484132  2530.055046  2678.286731  3670.255244  3005.622327  6443.149447  1121.131107  2242.627889  1117.902845   719.476715   643.444434   839.401409  1009.058729  1301.863343  1850.768477  3991.467059  4795.967042  4651.767612  4356.944561  3819.295466  3413.712978  2943.715751  4306.537509  3394.819200  3776.770830  2945.175171  3620.384634  2725.509703  3204.501271  3582.242429  4235.109687  4023.058116  3949.145079  3395.037949  3128.846586  2773.072422  3539.964557  1443.619281  1505.997479  1304.831058  1816.622168  2885.289490  3364.421427  3023.033142  3295.048177  2401.511669  2025.352269  2523.078620  2564.222515  3178.409040  2960.375249  2800.544202  3448.014259  3913.578987  1089.018062   802.957043   811.518505  4037.483931  3137.739897   135.131730   397.846065
  1.074000  3204.079568  3591.643572  2366.466224  1860.826015  2642.964721  2326.123714  2908.463776  1004.543751   659.843460  1224.933416   792.468935  1160.613894  2697.909474   578.081049  1160.006225  2525.009513  2681.929469  3688.327968  2996.364534  6424.118280  1117.749214  2231.521308  1124.238893   718.362927   642.489418   838.363841  1009.114161  1300.119907  1850.984544  3985.750973  4796.018600  4657.032788  4362.410605  3818.101287  3419.558406  2948.823869  4301.774502  3399.836123  3779.796958  2957.099378  3628.419340  2740.247548  3207.258582  3580.651283  4227.015078  4018.104076  3944.556117  3394.007683  3127.242923  2773.172557  3539.668024  1438.647211  1507.629901  1310.154647  1820.913255  2889.801860  3371.621668  3025.356233  3301.724195  2407.289296  2027.894408  2527.233064  2568.685710  3185.570836  2963.832617  2828.148305  3472.998738  3943.053186  1085.672304   802.578703   809.639469  4008.641541  3161.004484   132.750254   391.205288
  1.086000  3240.071833  3635.231853  2396.235317  1876.129955  2670.228481  2343.574613  2937.681973  1006.594971   687.756166  1230.498999   801.817477  1168.588251  2771.601677   562.756434  1153.525636  2525.015175  2693.336308  3716.363311  2994.146943  6379.445791  1117.164716  2223.973870  1144.562736   724.098310   645.877644   848.286822  1012.622118  1302.935779  1855.309755  3976.347744  4755.060375  4624.865949  4346.245825  3789.891601  3407.234251  2945.868671  4269.392788  3380.211890  3758.837581  2963.854671  3635.370731  2754.369378  3177.985251  3548.055589  4186.754525  3976.859152  3903.775513  3366.658688  3100.970984  2747.899294  3509.279490  1426.656246  1498.966366  1301.010102  1812.349707  2861.926854  3348.678946  2997.577786  3272.034824  2383.976430  2004.085928  2541.897595  2580.122948  3201.009929  2971.784174  2863.820195  3499.165475  3974.944651  1084.811836   806.362852   803.416520  3976.133466  3182.503283   117.772808   360.318497
  1.097000  3272.611201  3673.268557  2422.722876  1889.932454  2692.318261  2360.630482  2962.656915  1009.363830   703.603849  1236.879155   808.181316  1177.754849  2833.136618   554.176345  1149.782240  2527.275980  2705.318332  3742.747009  2996.144891  6334.855556  1118.142381  2220.444679  1158.108860   727.730319   648.074001   854.844600  1016.067788  1307.120025  1860.351861  3968.147933  4703.728855  4583.769441  4326.124489  3753.865063  3390.095234  2940.700054  4229.710400  3353.506029  3731.013238  2967.759073  3640.991151  2765.283287  3140.499890  3505.858183  4137.128592  3927.524686  3852.208555  3332.711756  3068.672419  2715.719938  3471.197188  1414.836347  1490.082890  1291.621178  1801.175177  2822.316289  3315.619230  2959.392965  3229.243159  2349.973321  1973.114461  2557.596862  2592.329383  3216.421604  2980.347276  2894.775569  3519.869149  4000.682533  1085.323319   808.816627   799.624994  3950.458169  3198.626339   109.381676   341.490954
  1.109000  3312.337697  3720.340431  2455.553859  1906.945854  2719.365656  2381.939590  2993.534207  1012.483910   705.992505  1244.945377   809.465945  1189.389452  2909.317017   551.592782  1146.392301  2530.213296  2720.256746  3776.003718  2999.604344  6277.638674  1119.629815  2216.715813  1166.124791   728.326440   648.410693   856.743604  1019.600928  1312.456727  1866.685897  3957.718611  4627.623260  4523.845017  4298.605621  3698.205352  3364.544809  2932.872772  4168.345630  3312.982321  3688.222766  2972.446680  3647.814691  2778.435647  3086.833358  3440.558314  4059.830308  3856.755495  3773.470223  3283.037841  3020.684421  2667.749226  3414.677680  1398.466080  1479.527652  1282.714903  1785.717309  2760.484219  3264.383674  2899.918556  3162.576854  2297.010869  1927.609444  2577.291727  2608.008981  3235.716820  2991.313636  2933.254838  3544.994593  4032.076001  1086.057946   809.400305   798.047334  3918.013275  3218.264878   108.119259   335.464962
  1.120000  3344.307244  3758.386075  2482.005656  1920.598000  2741.160393  2399.049997  3018.488586  1014.719978   706.000030  1251.316071   809.688792  1198.693216  2971.763313   551.424883  1143.477038  2532.159686  2732.032537  3802.631795  3001.934588  6229.512691  1120.591611  2213.185281  1171.585694   728.326887   648.411661   857.530534  1022.226065  1316.633672  1871.581227  3948.230147  4546.256661  4458.366930  4268.756807  3637.367785  3335.996568  2923.364043  4100.734293  3268.737793  3640.173376  2974.699438  3651.991785  2788.212895  3035.384715  3371.279240  3976.809680  3788.450062  3691.936433  3232.805431  2969.063222  2617.094219  3354.480565  1381.012499  1467.798203  1273.324639  1768.250912  2695.920169  3209.173679  2837.181091  3092.733324  2242.083997  1881.127954  2592.948079  2620.280385  3250.791132  2999.603748  2964.227200  3564.779162  4056.815505  1086.429358   809.523687   797.437280  3888.427615  3233.767450   108.115282   334.824659
  1.132000  3381.021023  3802.135885  2512.720525  1935.791373  2765.893340  2418.176234  3046.944141  1016.725823   705.999956  1258.120090   809.831396  1209.232062  3046.763837   551.423766  1138.963774  2532.925308  2744.650245  3833.254874  3003.327250  6168.068647  1121.005788  2207.402289  1177.667007   728.273764   648.411661   858.286023  1024.736166  1320.842952  1876.277924  3934.206367  4388.099909  4326.918125  4209.111035  3522.881269  3280.685246  2903.432250  3972.290158  3185.474575  3546.815217  2972.185314  3652.460575  2797.479331  2953.445017  3245.819807  3824.492693  3678.843379  3548.769951  3146.646023  2868.043184  2520.397007  3237.993121  1346.764416  1443.006098  1253.682822  1731.894612  2581.802607  3107.058406  2724.600136  2968.485951  2145.820111  1799.971014  2610.059679  2633.508444  3266.725242  3007.615805  3000.378311  3586.695194  4084.417224  1086.128950   809.450075   796.469152  3844.159544  3250.433505   108.115282   334.492885
  1.144000  3418.704569  3847.097754  2544.398010  1951.248497  2791.294754  2437.674552  3076.057434  1018.707752   706.000030  1265.041828   809.942111  1219.850853  3126.925826   551.423728  1133.930385  2533.125877  2756.993175  3863.895833  3004.246056  6104.432344  1121.175587  2200.830281  1183.911562   728.238970   648.411810   858.932287  1027.095392  1324.838698  1880.694777  3918.864131  4184.357822  4159.712791  4137.077928  3380.975425  3214.606047  2879.975140  3812.430501  3084.170520  3431.962132  2968.848348  3651.947677  2806.479037  2857.783139  3090.358377  3634.374440  3549.553454  3372.825682  3043.477833  2737.678885  2395.495623  3087.887764  1303.377897  1413.400620  1230.295449  1687.276214  2441.223264  2981.519997  2585.476041  2815.619111  2027.745247  1700.370014  2627.239823  2646.415830  3282.511830  3015.177250  3037.177622  3608.549833  4112.008810  1085.551381   809.269771   795.319155  3794.530630  3267.185092   108.115301   334.156454
  1.155000  3449.314535  3883.546889  2570.143938  1963.770837  2811.918259  2453.574836  3099.734783  1020.243466   706.000030  1270.560324   810.016170  1228.485778  3191.427588   551.423728  1129.806563  2533.148229  2767.011821  3889.519274  3005.177677  6051.872969  1121.417880  2195.604593  1189.009771   728.165135   648.411736   859.440193  1028.963327  1328.064203  1884.186119  3906.441331  4026.082754  4027.462900  4077.588618  3272.637427  3163.133860  2861.483693  3690.560460  3006.066978  3343.691528  2965.067625  3650.807440  2814.070284  2782.982290  2971.989512  3490.054905  3448.981345  3238.514364  2963.621914  2636.390626  2299.132943  2971.472144  1268.986017  1388.518363  1210.611910  1650.796831  2334.219813  2885.432541  2479.567081  2699.099183  1937.773079  1624.488235  2641.148567  2657.307088  3295.124471  3021.690845  3067.767620  3626.877069  4135.087430  1085.024253   809.095502   794.414654  3754.830956  3280.634880   108.115291   333.870053
  1.167000  3488.611877  3930.358887  2602.765262  1980.424970  2838.688195  2474.486977  3130.238056  1022.926271   706.000030  1278.449744   810.304433  1239.884421  3269.288540   551.425517  1126.284301  2535.620034  2781.556845  3923.254013  3008.824587  5995.407701  1122.953147  2191.846371  1195.716038   728.151500   648.411810   860.381052  1032.172590  1333.130151  1890.149862  3896.228075  3917.998075  3942.805529  4041.796327  3199.976087  3135.831952  2854.658365  3609.420955  2957.280278  3291.186690  2969.086468  3656.781912  2828.481197  2720.861137  2884.526253  3383.891284  3364.568651  3134.377003  2903.547287  2567.737103  2231.234163  2891.266048  1246.413589  1375.000179  1199.869066  1629.728526  2251.696587  2820.119560  2400.194556  2611.120343  1867.850721  1565.047055  2660.389841  2673.341036  3313.729763  3032.994270  3107.192814  3652.642965  4167.310894  1085.500643   809.272677   793.817490  3720.639050  3299.869299   108.115301   333.557278
  1.179000  3539.272249  3991.038501  2643.850744  2003.328353  2874.008715  2502.367496  3169.668019  1028.377265   706.005320  1290.907711   811.157897  1255.088001  3363.073170   551.479049  1125.833765  2544.686794  2803.802788  3965.696096  3019.165397  5954.198837  1127.494872  2193.468809  1204.727218   728.516802   648.414865   862.218142  1038.250253  1341.673285  1901.369095  3896.986544  3944.037855  3996.770382  4087.572992  3222.005963  3179.596364  2882.960439  3635.192215  2991.228998  3337.138295  2999.063432  3684.277534  2857.281864  2703.620791  2877.287567  3373.879492  3334.856927  3110.628426  2902.985811  2586.167753  2236.363441  2907.001674  1258.758157  1401.470304  1220.741570  1659.109741  2232.816517  2838.186324  2389.755398  2598.433197  1850.858033  1548.853815  2688.364983  2697.092593  3343.775868  3053.225577  3155.618310  3688.806593  4212.175012  1088.879853   810.467750   794.059858  3712.346256  3329.655528   108.116083   333.417617
  1.191000  3592.521548  4053.781927  2686.373293  2027.696818  2911.515236  2532.502711  3211.592734  1035.750806   707.846582  1305.557936   813.195929  1272.275895  3459.401131   552.071333  1126.743183  2556.583881  2828.947008  4013.981819  3039.621711  5938.224196  1134.388074  2198.458761  1216.330081   729.493201   649.521276   865.221918  1045.573056  1351.406723  1914.298385  3909.960091  3987.622261  4066.617489  4143.833220  3266.681135  3239.636421  2921.626866  3686.185479  3043.704629  3403.850198  3033.778965  3716.568053  2891.568840  2704.116702  2892.604470  3389.977515  3327.683806  3112.993836  2920.458019  2615.345120  2251.434177  2935.397029  1275.169998  1432.545036  1244.746372  1694.193482  2233.348787  2875.753045  2398.847491  2608.143091  1850.752234  1546.695977  2718.542814  2724.242210  3377.761245  3079.252243  3206.350505  3728.382289  4260.359704  1093.612164   812.795311   793.115273  3717.250824  3359.586895   108.392397   334.234536
  1.203000  3649.493754  4114.803076  2728.576064  2054.721415  2954.532206  2569.565177  3259.499669  1052.320749   721.895769  1330.995411   822.992846  1298.878789  3552.051783   554.272570  1133.657619  2581.903636  2865.101993  4073.831141  3089.803457  6012.496352  1146.778837  2210.069150  1241.799071   734.491423   657.867268   874.938816  1058.247983  1365.321279  1934.696883  3957.473040  4037.711322  4124.575555  4199.540019  3312.677741  3295.180202  2966.521084  3736.568689  3091.498911  3459.354639  3077.341020  3761.916459  2933.168709  2731.501758  2922.822237  3420.696259  3356.936276  3143.503666  2952.627540  2645.813525  2274.488360  2969.848216  1290.181875  1459.310949  1263.602525  1724.561304  2253.994942  2914.301157  2423.499972  2638.905942  1870.311201  1561.865956  2754.422128  2756.019235  3426.299691  3116.875291  3255.624771  3769.719601  4308.302402  1104.449257   821.739882   787.948519  3751.071692  3381.801546   110.257817   337.925032
  1.215000  3685.986102  4155.328572  2760.129869  2072.822005  2987.740040  2590.476274  3292.651772  1065.426692   732.022524  1353.385448   829.920620  1322.008073  3607.911468   555.323176  1136.038005  2605.477571  2893.512845  4125.203192  3138.345480  6162.778735  1157.861948  2218.482643  1261.656284   740.885958   663.394928   881.104469  1067.732647  1376.937330  1950.122863  4009.485841  4096.450508  4182.853699  4256.116748  3362.078667  3347.453773  3012.225330  3786.229193  3139.941990  3509.611785  3121.339679  3808.930218  2977.363169  2769.171000  2960.080504  3457.965553  3398.527205  3182.484508  2990.285158  2684.889138  2307.813764  3013.138771  1306.688339  1484.543830  1285.412759  1754.028797  2293.688059  2964.158356  2465.098798  2690.072656  1907.608956  1592.986435  2782.366574  2783.655226  3464.662433  3149.272501  3294.622302  3803.294897  4349.385798  1111.543253   828.578174   787.964985  3812.197745  3414.641917   109.836292   339.767337
  1.227000  3717.866540  4192.036986  2787.290514  2087.862343  3012.805283  2605.831325  3318.062723  1076.371968   737.849325  1374.226660   835.565552  1344.501674  3656.066656   556.303449  1137.252748  2625.322044  2916.988432  4171.955585  3180.314898  6349.987388  1167.622060  2226.757556  1276.643723   747.198761   668.133944   886.498839  1075.604707  1387.691349  1964.388043  4060.288668  4165.823162  4249.382913  4319.788218  3418.496251  3402.940631  3061.090708  3840.748668  3194.553256  3563.075364  3168.321848  3859.855235  3026.450574  2811.585367  3003.150821  3502.210081  3444.487751  3225.975037  3031.573296  2733.759582  2350.601852  3067.875504  1324.830353  1513.410211  1309.455484  1788.095981  2348.996550  3030.290008  2522.162199  2757.260501  1959.179789  1636.116356  2806.784809  2809.977531  3499.522209  3180.834055  3327.815235  3832.689822  4386.596084  1117.485687   833.945423   799.604878  3905.524313  3471.318781   109.138796   341.529734
  1.239000  3762.093484  4239.686430  2817.486227  2106.218338  3035.912216  2630.249560  3346.853554  1089.454219   744.006038  1398.022175   843.524486  1371.487826  3725.139201   558.974221  1142.145693  2644.350827  2943.125665  4221.805632  3220.314384  6528.254747  1178.707480  2239.282131  1293.180436   753.564239   675.375760   894.848779  1085.346341  1400.212646  1982.375532  4113.272727  4241.845608  4322.428703  4388.683736  3479.821086  3463.135362  3114.596605  3900.845051  3254.153430  3621.908724  3219.884336  3916.572034  3080.873191  2857.313752  3051.223159  3552.423120  3493.906260  3273.713887  3075.982034  2786.442637  2396.661043  3129.602075  1343.695968  1545.886546  1332.641244  1825.705767  2410.474569  3104.941249  2585.699260  2829.958498  2017.322034  1683.917940  2834.066153  2838.947773  3542.094827  3216.640353  3362.183571  3863.360286  4423.591495  1126.083136   841.299519   818.514675  4016.315043  3541.834950   110.719930   345.642306
  1.251000  3815.477490  4293.955266  2850.603461  2126.365602  3058.300316  2661.507726  3378.650844  1104.518324   751.576796  1424.728185   853.816271  1401.414424  3808.216155   562.824756  1149.367020  2663.362622  2972.644567  4273.648262  3258.563578  6664.106250  1191.850752  2254.107296  1311.803907   759.944543   683.004931   904.445276  1096.683294  1413.625926  2002.823204  4166.983366  4314.166903  4392.782450  4453.447461  3537.648022  3522.512317  3168.773055  3959.320188  3311.502934  3680.749536  3271.617293  3973.938227  3135.418594  2901.620567  3098.712564  3601.306081  3542.331755  3320.411742  3119.393885  2833.364308  2436.997294  3187.296391  1361.818314  1576.923281  1354.163289  1860.347390  2465.084344  3172.811866  2642.174959  2894.308269  2070.968449  1726.942062  2863.864899  2869.505584  3590.779305  3253.058493  3399.314284  3895.659149  4460.522532  1136.084720   850.678310   833.849758  4114.395678  3603.200614   113.647366   351.122245
  1.263000  3858.030438  4339.051843  2880.446017  2141.934186  3073.834181  2677.359879  3399.374783  1117.685586   759.725794  1451.180428   864.170790  1427.931041  3868.707418   564.170219  1153.133959  2679.773271  2999.129593  4317.564070  3289.574087  6756.936908  1203.182042  2262.645215  1326.992512   764.357597   686.648786   911.705047  1106.202006  1423.969865  2021.905929  4212.561846  4367.502034  4445.562959  4507.229924  3579.158783  3570.730090  3214.294612  4001.356065  3356.001079  3726.833165  3316.545784  4023.610950  3181.890845  2933.296263  3131.873310  3635.357022  3576.479256  3353.841007  3150.932193  2866.030335  2465.686947  3228.579462  1375.105679  1602.116376  1374.340951  1888.414025  2503.210902  3221.941888  2681.064904  2938.647866  2109.728158  1756.725460  2891.436517  2896.063328  3632.322848  3284.194469  3432.224393  3923.259676  4493.893981  1143.850312   857.089907   841.852948  4189.302325  3649.434447   113.982679   353.875794
  1.275000  3852.081895  4341.789186  2894.965112  2137.791961  3066.237271  2649.976909  3380.206823  1121.271104   772.561133  1464.818418   861.402303  1446.748078  3867.431581   561.359115  1147.475466  2680.411041  3006.564975  4329.870939  3295.963705  6785.868406  1205.344498  2252.210975  1333.613098   768.105015   688.441098   912.298039  1109.859794  1427.597553  2022.841126  4228.883684  4362.502694  4443.301558  4521.541595  3579.309583  3583.754301  3233.061731  3996.701241  3364.249468  3733.511269  3334.079385  4043.312967  3206.665814  2929.928601  3126.004934  3626.990914  3567.227423  3342.169225  3145.810366  2867.356837  2468.004078  3226.443231  1375.543922  1610.735208  1386.892647  1902.009994  2506.225407  3230.298758  2681.453228  2939.659655  2116.102576  1759.595424  2901.092470  2905.896902  3642.702997  3294.655979  3444.208801  3925.879598  4503.277838  1144.153625   856.780186   842.098892  4229.587018  3667.476475   114.186751   351.985507
  1.287000  3838.292360  4323.450625  2886.682153  2123.282850  3039.941788  2622.566819  3354.510665  1118.787825   771.844387  1469.119936   856.370926  1455.850303  3876.861930   555.040203  1135.206074  2661.381364  2994.348109  4320.321381  3284.747303  6766.206026  1200.629026  2232.288867  1330.295652   762.223825   685.194433   907.189623  1104.329377  1421.181709  2010.409385  4215.030670  4290.075600  4377.375543  4484.526217  3533.485532  3557.975888  3222.593665  3942.799866  3330.647647  3697.222173  3321.966529  4029.591084  3208.220005  2887.981534  3077.894449  3568.066061  3510.539532  3282.066882  3101.312220  2826.548815  2430.687696  3183.957338  1358.687431  1602.689475  1373.490393  1888.260096  2468.158752  3196.108341  2643.082738  2895.826995  2089.073807  1733.821332  2891.562283  2898.254991  3630.415499  3283.749521  3433.579504  3903.734386  4479.887784  1135.195047   850.199461   835.938826  4236.813188  3654.847145   112.110758   346.010476
  1.299000  3841.175437  4316.568077  2874.742150  2109.314799  3008.123636  2614.637315  3337.453306  1113.150269   762.887299  1470.597833   852.416381  1461.974382  3921.649456   547.660589  1122.701690  2635.484934  2977.185249  4306.402504  3270.221353  6727.810502  1193.769798  2211.800069  1324.576139   751.698986   679.772198   900.171697  1094.063669  1409.845948  1996.996701  4188.958704  4163.128436  4263.740480  4414.633811  3448.171616  3501.482010  3189.169168  3849.091828  3265.002668  3626.569211  3293.470740  4000.436664  3195.309639  2813.951075  2993.632257  3467.032313  3416.049182  3182.933629  3025.921881  2754.739523  2361.489832  3109.658957  1330.133379  1580.496579  1341.689080  1855.981499  2391.750664  3125.828505  2569.881082  2812.596262  2031.066418  1681.404710  2878.525853  2883.408666  3614.247441  3260.920048  3413.296640  3870.919347  4441.916347  1121.923923   839.847699   826.438218  4228.991866  3634.020388   108.314874   337.058827
  1.311000  3838.872313  4306.104779  2862.191796  2093.444318  2971.375287  2599.610984  3312.948942  1107.144058   755.932406  1470.474750   848.651603  1467.374563  3953.259587   541.253500  1109.449863  2609.397471  2956.301868  4283.564985  3252.942860  6669.889092  1187.342107  2187.794298  1318.837553   744.858459   675.928816   895.412341  1085.602045  1398.968101  1980.914325  4150.466025  3976.866305  4094.983935  4305.246174  3315.791786  3404.368460  3122.525215  3707.599044  3158.579171  3510.812819  3243.161738  3953.289390  3162.856102  2702.964544  2867.841721  3319.972754  3280.999660  3042.187989  2915.519476  2650.592923  2263.908386  2996.456027  1292.419136  1544.141471  1300.593168  1806.563139  2275.424451  3010.986745  2456.001043  2684.594989  1939.125657  1601.682454  2862.813175  2862.852812  3588.383496  3228.402734  3388.735056  3830.054104  4395.933747  1109.690145   828.846171   817.662477  4203.890562  3610.180020   106.449006   327.355526
  1.323000  3824.405968  4285.751581  2852.347791  2077.723891  2936.383784  2576.972544  3283.101916  1103.399098   753.459185  1470.296532   844.938383  1472.605318  3961.463571   536.153875  1095.473468  2589.031756  2936.937213  4262.645245  3237.248659  6605.214477  1183.434725  2164.341211  1314.812750   742.189437   673.401132   892.348886  1079.343855  1391.231269  1966.853440  4105.867743  3739.008009  3867.865205  4131.007195  3155.614734  3272.989690  3022.363782  3536.127806  3023.591340  3361.081183  3146.556914  3879.249692  3113.855720  2572.350502  2722.519338  3151.952922  3130.582273  2885.378599  2787.448466  2509.624958  2137.598246  2837.741375  1237.952039  1481.787562  1244.229972  1727.668941  2144.473195  2867.909968  2321.763486  2535.553575  1832.951456  1512.231380  2851.146758  2842.536271  3558.435738  3196.466267  3368.861377  3790.519834  4353.299439  1100.237221   819.322392   811.153427  4156.754911  3586.247563   105.114672   318.175890
  1.522000  3995.020390  4471.579790  3115.002215  2087.299973  2877.709270  2552.769780  3242.193758  1181.204766   826.917216  1640.672386   856.567323  1733.024418  4270.074069   491.645634  1005.649343  2654.455006  3082.227111  4677.988291  3431.386054  6415.439248  1273.233742  2079.092562  1396.714598   775.534362   689.864308   920.910612  1102.876365  1452.257782  2058.697194  3828.142285  1393.319517  1635.757834  2562.176883  1367.251724  1876.513511  2043.920755  1640.814096  1583.028734  1686.732769  2442.115545  3155.948818  2553.604543  1164.336056  1143.292636  1332.913637  1732.251793  1233.976930  1554.911137  1043.275446   804.323107  1128.442436   673.287213   780.785829   679.743215   903.833508   679.340810  1208.946854   721.609965   796.632841   631.282330   509.929508  3112.889826  2928.367257  3654.470444  3134.022355  3516.721725  3737.736940  4390.285909  1098.216102   791.200399   788.366571  4535.124004  3702.422082    60.434509   193.992462
  1.534000  4045.539796  4534.029663  3157.938123  2111.349255  2905.351818  2570.180595  3270.540237  1197.366491   840.796456  1673.420668   868.925378  1759.666950  4287.902415   497.891717  1017.761305  2680.450082  3127.905428  4735.405147  3483.890891  6503.430009  1290.695518  2102.572620  1414.686888   787.279904   698.378980   935.061425  1123.133972  1474.960744  2090.747654  3883.704841  1539.429128  1791.006476  2706.182301  1492.076218  2004.906237  2161.261588  1787.679642  1693.226546  1820.195168  2533.904314  3256.179988  2640.034556  1262.222081  1244.104132  1457.112879  1833.339185  1340.612471  1653.874516  1135.245487   878.532752  1226.840317   723.442286   842.791572   735.258907   976.761580   748.524517  1306.692362   797.821805   881.877840   685.386807   553.536676  3157.882094  2977.690101  3714.062870  3192.741573  3557.587862  3810.053468  4466.899931  1115.797684   803.883523   796.793848  4614.270926  3758.290112    62.885988   201.523229
  1.545000  4069.228172  4563.916326  3179.227412  2122.149169  2915.663421  2576.454878  3281.758130  1204.432622   845.882520  1692.147553   875.044018  1774.783731  4302.656353   501.457155  1023.157239  2690.232694  3148.659468  4763.547778  3508.791625  6545.657516  1299.377382  2112.886757  1421.893239   792.655647   703.768507   942.301676  1133.662760  1486.239433  2105.502784  3908.863366  1652.878374  1909.693331  2807.227373  1586.445868  2098.307014  2244.599611  1898.886114  1773.515344  1919.020563  2591.933310  3316.591084  2693.549991  1337.184608  1321.393847  1552.774608  1910.739541  1423.021704  1727.542579  1203.482226   935.580805  1300.547421   760.756433   889.966562   774.457753  1031.713635   802.531317  1379.757077   856.781304   947.829410   726.362988   587.053448  3180.585206  3004.540503  3744.020760  3229.553699  3577.072322  3852.115273  4508.980513  1124.330908   810.874254   801.382884  4650.250077  3788.460791    64.583030   207.451228
  1.557000  4078.692496  4580.671787  3198.243678  2129.667997  2920.871377  2568.312287  3281.786442  1213.860512   859.166905  1711.827666   879.547074  1796.156168  4297.173619   504.656136  1028.054431  2696.596384  3169.044554  4784.550965  3527.029753  6576.678753  1307.577342  2118.708789  1428.691745   800.059214   709.110498   950.063914  1144.988164  1499.126554  2118.576914  3929.049969  1783.911139  2044.658512  2915.040255  1692.464203  2201.741487  2335.260808  2023.866773  1862.058192  2029.090673  2651.973367  3375.570774  2746.886313  1423.266679  1410.041600  1662.181765  1998.480111  1519.061327  1810.968965  1282.054037  1001.628414  1382.529736   801.404491   942.890048   820.914358  1094.171777   865.429863  1461.721808   924.485400  1023.525372   773.664713   626.419485  3199.206293  3028.235435  3771.716952  3264.741302  3592.565060  3892.810941  4548.973143  1133.626774   818.497241   807.103291  4674.642980  3814.544976    66.922293   214.040242
  1.568000  4092.689455  4598.997831  3213.054538  2137.586325  2924.556732  2571.794391  3287.062347  1219.924986   866.368040  1728.934497   883.197039  1816.581786  4315.556586   506.719016  1031.452566  2699.587047  3185.983598  4801.170230  3538.655043  6589.347720  1312.217712  2124.519497  1432.633847   803.880021   712.557808   954.928771  1151.305214  1506.077349  2128.352672  3940.642178  1887.311786  2150.437981  2998.037040  1774.349064  2282.034457  2405.714542  2120.418549  1930.476874  2115.067542  2698.275745  3419.786692  2788.092196  1489.128768  1477.938145  1744.922996  2067.377865  1594.544649  1876.165420  1342.457682  1051.055565  1446.699053   830.961391   983.394310   854.562595  1142.114028   914.762542  1524.199545   977.283865  1081.930175   811.041743   657.225177  3212.611973  3044.935465  3796.358407  3292.627037  3602.837026  3921.616673  4574.961960  1139.566526   823.684260   809.905231  4684.104919  3830.933571    68.377950   218.490735
  1.579000  4104.943275  4612.368047  3221.041262  2141.424417  2921.433449  2574.417591  3288.915157  1223.145574   869.100466  1743.254960   885.978565  1833.649874  4339.523315   507.528298  1032.615155  2694.288194  3195.521832  4810.141027  3542.865515  6581.441164  1314.254403  2127.999961  1432.320327   805.360973   714.175925   956.786945  1154.175475  1509.056091  2134.259641  3941.993117  1983.479857  2247.910798  3073.382676  1850.550473  2356.518358  2471.047193  2209.393084  1993.460208  2195.520848  2738.390863  3458.456099  2826.495767  1549.522728  1540.910602  1820.433587  2130.315602  1663.582623  1935.455352  1397.568583  1096.197814  1506.644487   855.932459  1020.844802   883.145630  1186.523288   961.472169  1581.966430  1027.363390  1136.764064   846.666992   686.242282  3218.549490  3055.915534  3813.703060  3315.788805  3606.134951  3940.786719  4590.107203  1142.367572   826.073214   809.964538  4680.418372  3836.694956    68.882848   221.586842
  1.590000  4113.836586  4621.617198  3226.434886  2142.558098  2913.973629  2574.775219  3286.131024  1225.324720   870.096162  1756.012142   888.105184  1848.209500  4361.104369   507.936925  1032.897010  2684.614956  3199.876547  4812.900126  3541.208506  6555.891037  1315.384060  2130.503953  1429.405063   806.808993   714.597926   957.831219  1155.815274  1510.774493  2137.643099  3935.541809  2071.897089  2336.840183  3143.747449  1921.114773  2426.351458  2534.167171  2290.849239  2052.421123  2270.774692  2776.738703  3497.096896  2866.868377  1604.181528  1599.314511  1889.488101  2186.777145  1725.577861  1988.346428  1448.570043  1138.119102  1562.391669   878.866836  1055.648029   908.348933  1227.867380  1005.572453  1635.872722  1074.687913  1187.850386   881.197751   713.937953  3220.095336  3064.540625  3825.711012  3334.764540  3605.015576  3952.930570  4598.675072  1143.908948   827.566609   808.712244  4668.516815  3835.362494    69.432543   224.183928
  1.601000  4125.199616  4635.737836  3238.241374  2147.209644  2910.234034  2577.998340  3285.503685  1229.071096   872.776732  1771.531701   890.982077  1866.095960  4384.420514   509.502292  1035.111472  2680.169642  3208.118677  4817.878902  3537.664115  6523.039937  1318.152547  2135.900706  1426.597089   810.100883   715.933591   961.546451  1159.494594  1514.764577  2142.907679  3927.077353  2158.402801  2424.222976  3219.170868  1990.198493  2497.579902  2602.879405  2370.449603  2113.225758  2346.167266  2823.295593  3546.667397  2917.585969  1655.912548  1656.406969  1956.391335  2241.045535  1784.903109  2039.183080  1499.384791  1179.637760  1617.589593   903.115943  1089.802533   934.097916  1268.552095  1049.086004  1689.468622  1121.228412  1237.215698   917.026624   742.111206  3227.092326  3078.899384  3843.101263  3354.537785  3607.747853  3967.405260  4611.469209  1147.793308   831.471086   808.529928  4658.831060  3836.926520    71.151201   227.576829
  1.612000  4131.361544  4642.809033  3246.204555  2149.510384  2904.794216  2568.436265  3282.348514  1232.221946   877.951756  1784.441024   894.161984  1883.487552  4392.874241   510.944724  1037.178934  2675.602734  3214.828372  4818.563461  3521.592021  6474.175453  1320.822835  2137.747109  1418.288052   811.985955   718.702376   964.912549  1164.034754  1519.140154  2146.925777  3903.811574  2237.386405  2504.872382  3294.502199  2053.705305  2564.892173  2670.464814  2443.655431  2171.150595  2417.048663  2869.788706  3600.110412  2971.138060  1701.981872  1709.014177  2016.947120  2288.775295  1837.581843  2085.023075  1544.175297  1218.379214  1668.021381   921.247825  1120.291725   959.570110  1305.295527  1089.391783  1738.793254  1164.356172  1282.434016   951.385498   768.716261  3236.375451  3095.532656  3859.697878  3370.622694  3612.536788  3981.472254  4626.278281  1152.595431   834.895149   808.834732  4647.611678  3835.718632    72.194333   230.482500
  1.624000  4128.446281  4643.077552  3248.111904  2141.829133  2885.870039  2550.572455  3264.314830  1234.278530   883.368030  1793.583035   896.671936  1895.698905  4394.358397   511.540323  1037.808135  2656.072974  3206.401169  4799.981117  3479.427695  6361.945868  1321.989596  2133.980095  1402.628124   814.994574   719.724074   966.976136  1167.549565  1520.320773  2141.608745  3824.608326  2309.276164  2577.101588  3360.858560  2111.508101  2627.078891  2733.257413  2511.403561  2224.926651  2483.542562  2906.270921  3643.446565  3019.170165  1743.928194  1758.313030  2073.922157  2329.540551  1885.077357  2124.466300  1584.570110  1255.027652  1713.771671   939.949900  1150.751337   983.061045  1340.853423  1130.358502  1783.979833  1207.524985  1326.153576   985.634029   795.351565  3235.106766  3104.934990  3869.561851  3380.663991  3608.667254  3986.023664  4631.325901  1155.028716   838.197768   808.408931  4607.373476  3806.586862    73.794727   233.819634
  1.634000  4124.266207  4641.111195  3252.793252  2138.856202  2875.042260  2535.330355  3249.519169  1234.261543   886.440873  1802.307665   897.278413  1907.438934  4389.776289   511.224717  1036.126986  2644.721568  3193.524182  4787.490368  3442.566097  6260.483265  1321.426928  2132.133096  1389.712542   815.712661   719.276220   966.696069  1168.516949  1520.943940  2142.241299  3752.689958  2356.513888  2623.960674  3402.371109  2146.260440  2664.141059  2770.476341  2553.021908  2257.538736  2523.617744  2929.336429  3669.162095  3047.378361  1769.445390  1788.351387  2108.685970  2355.640084  1914.044470  2150.426805  1607.524306  1274.159104  1739.401817   947.549716  1167.518795   996.497944  1360.392421  1152.514070  1808.175445  1230.508238  1349.627525  1004.187167   809.156522  3237.853944  3111.962378  3875.008821  3388.468325  3608.759046  3989.512920  4633.475244  1155.438796   838.245079   806.718245  4581.117332  3782.780766    74.332142   235.135779
  1.645000  4122.012258  4641.402960  3258.120418  2133.218199  2852.733135  2512.226105  3223.723769  1233.783886   889.563411  1811.383665   897.428691  1919.623911  4393.820167   510.231592  1034.215093  2619.082630  3157.786727  4771.968722  3378.611207  6085.934043  1319.464296  2128.773481  1372.503042   815.588608   718.420222   966.616273  1168.912426  1521.411538  2139.841020  3634.102046  2404.475808  2671.011686  3442.595899  2178.961635  2698.946595  2803.519070  2593.246102  2286.664844  2561.126947  2946.907580  3690.999448  3070.192039  1794.053763  1816.719174  2141.861320  2380.905002  1942.635477  2175.720930  1625.899374  1288.272291  1760.079414   952.214897  1182.681471  1007.658169  1377.747804  1171.984151  1824.440211  1250.281036  1370.821595  1021.371335   821.585059  3240.529299  3117.579818  3880.303800  3396.214843  3608.976901  3992.723525  4633.542597  1155.323461   838.659331   803.924948  4557.017684  3748.973012    74.438318   235.616155
  1.656000  4117.943943  4638.726711  3260.026574  2118.941396  2811.889648  2472.606599  3176.550567  1231.726781   891.191587  1817.743331   896.264315  1929.454803  4394.385219   508.361869  1031.572148  2579.106688  3118.619621  4752.999544  3304.485679  5848.125219  1316.607147  2122.707367  1356.561929   814.079568   717.029572   965.775698  1167.911887  1521.653235  2133.044004  3458.387256  2434.771806  2699.596584  3461.721241  2195.841819  2715.865970  2817.738056  2615.798712  2299.536467  2580.003440  2948.035002  3694.177568  3073.341846  1808.915138  1832.813770  2161.736637  2395.953834  1960.631460  2190.828621  1630.213112  1290.277094  1765.744537   951.249599  1188.526452  1012.294367  1385.105699  1179.876253  1823.255271  1257.372797  1379.121095  1028.505787   826.454088  3241.066933  3118.530214  3880.787790  3401.279747  3607.650101  3993.057609  4630.649984  1154.096499   838.854313   800.079033  4530.218244  3703.602850    74.057980   235.413853
  1.667000  4115.795791  4636.353552  3262.688518  2095.081806  2752.281725  2415.061146  3104.608357  1228.801012   891.121402  1824.637651   895.467252  1940.854490  4393.486381   506.494455  1028.141230  2538.315058  3106.575310  4736.352563  3245.540261  5561.379194  1314.339042  2115.652710  1347.189844   812.051967   715.192854   964.360684  1165.763885  1522.202790  2127.608806  3241.568506  2449.315488  2711.496055  3459.179699  2198.051512  2716.270685  2816.716731  2622.079849  2298.628092  2582.487166  2937.680781  3678.999841  3057.773411  1815.081835  1838.411689  2170.651257  2403.370440  1969.100237  2198.203504  1625.510156  1285.090595  1762.228608   946.741179  1186.624616  1011.762694  1385.127455  1177.547425  1810.538024  1252.961755  1373.438537  1025.203988   823.493153  3243.658841  3118.099272  3880.679905  3407.675624  3607.136011  3992.184997  4628.306627  1152.649596   838.159397   794.316083  4460.313320  3629.876673    73.616831   235.123932
  1.678000  4129.941463  4650.667906  3270.677030  2070.536166  2683.479488  2363.603562  3028.736711  1228.829920   891.147107  1831.169873   898.310319  1949.879527  4428.708851   506.567731  1027.510688  2506.183982  3118.535578  4737.794995  3222.649693  5254.820585  1314.133108  2109.895945  1349.934936   811.660439   713.987201   966.205373  1164.410040  1522.205323  2123.727649  3094.561994  2444.041222  2703.091800  3434.506059  2184.278071  2701.877356  2802.346051  2610.586286  2283.270806  2569.210231  2917.686999  3648.603857  3025.529683  1809.715927  1831.362545  2165.490240  2400.612533  1965.285242  2195.106298  1617.546529  1279.139370  1755.228788   942.492560  1182.019189  1004.290879  1382.211745  1168.533415  1792.769283  1240.462139  1355.924308  1014.833897   815.116987  3249.123693  3117.458224  3888.325989  3415.449858  3608.621657  3990.669549  4627.470672  1153.208464   839.122534   786.052421  4260.223806  3501.300812    73.607280   234.228987
  1.689000  4105.718732  4629.743099  3266.010284  2054.179907  2615.134716  2298.782021  2949.060798  1222.378984   893.999860  1830.811352   891.995057  1955.670118  4401.207864   504.193120  1019.198298  2440.929264  3102.330863  4737.705290  3215.294480  4827.074409  1310.884207  2095.145136  1349.239796   805.742145   709.678903   961.462185  1159.554347  1517.076343  2110.605240  3076.897562  2410.020381  2664.393485  3375.113904  2148.251235  2665.106952  2768.648565  2576.149404  2249.754220  2532.292306  2874.913812  3589.262068  2971.207500  1791.010648  1810.361892  2143.009752  2380.247414  1944.889724  2176.680267  1593.632251  1263.091266  1727.868319   924.471319  1162.692979   988.367870  1363.829970  1145.185977  1765.200496  1210.566014  1320.258230   989.389718   794.320852  3245.911300  3109.178245  3872.801661  3408.413231  3601.676226  3975.597620  4610.410035  1148.367226   835.125372   768.496692  3773.299158  3284.273446    72.315661   231.380984
  1.699000  4110.104442  4630.868435  3265.931904  2053.804845  2576.286793  2279.504538  2914.327681  1217.119396   889.792591  1831.161529   889.516026  1956.603676  4427.957535   501.640290  1012.803242  2353.981584  3103.380799  4748.167098  3231.671154  4436.040819  1306.954622  2087.538093  1351.574063   800.315589   705.682635   956.900641  1152.554676  1509.584337  2101.412565  3122.515082  2370.219678  2621.970177  3318.331540  2107.650042  2625.631690  2733.587027  2539.193630  2214.154899  2494.378835  2833.136320  3538.058996  2924.336493  1768.572032  1785.995662  2114.658952  2355.067730  1919.052005  2155.497223  1563.290805  1239.260659  1696.262509   906.174630  1139.908284   966.783538  1340.356022  1117.108390  1731.029749  1177.651435  1283.425242   961.927325   771.059245  3242.547214  3100.835979  3864.771128  3401.447833  3595.259786  3958.491087  4586.455822  1141.710803   831.348151   739.793479  3372.283578  3090.981245    71.018245   228.866395
  1.710000  4100.624323  4619.370699  3262.538612  2054.519504  2551.609278  2261.591107  2891.408503  1213.570014   886.851251  1830.960959   887.770578  1960.261762  4428.078532   500.105061  1008.608341  2253.601849  3106.100261  4753.424823  3247.118890  4059.784710  1304.719299  2077.297717  1358.482987   800.583437   703.089610   955.875069  1149.656996  1504.148990  2093.810588  3188.135028  2316.701561  2565.410435  3250.164986  2055.974156  2572.852075  2688.444257  2490.954697  2166.511118  2444.954365  2784.582973  3478.362262  2870.295048  1737.796515  1753.044128  2076.532245  2320.162803  1882.765144  2124.592960  1522.008777  1208.977178  1654.365510   886.658877  1113.007814   941.168368  1310.557574  1081.986278  1682.867408  1137.976721  1240.993142   930.177718   744.103640  3239.125609  3090.964556  3852.348626  3387.253582  3586.749434  3937.250078  4557.645917  1137.242168   829.379857   687.689930  3091.519475  2875.390351    70.600496   226.262622
  1.721000  4083.890915  4601.391554  3253.715336  2051.971853  2542.253435  2254.003286  2884.788811  1211.264357   883.747041  1827.573776   883.879140  1961.958110  4419.627190   498.009026  1003.227457  2223.189473  3089.786172  4750.207067  3248.825073  3927.717507  1301.176846  2064.547092  1358.416677   799.135715   700.153187   952.746049  1145.422980  1496.152133  2082.448900  3221.227229  2251.918614  2496.616393  3179.731965  2003.226280  2516.930699  2642.114758  2433.702648  2114.994377  2388.807833  2740.163803  3421.170712  2822.020352  1699.619442  1713.600606  2030.197531  2279.025763  1837.505847  2086.602598  1478.658319  1175.156087  1608.037800   867.741555  1085.770950   916.912258  1278.595179  1044.926345  1630.197912  1098.620072  1200.675517   901.202708   720.028803  3231.413066  3078.701794  3838.243783  3370.330036  3574.173748  3917.052746  4532.629550  1132.189706   825.492591   628.380999  2965.418100  2708.150446    69.213812   222.731289
  1.731000  4065.536857  4580.833018  3243.608177  2049.494237  2540.360391  2252.854109  2887.181044  1210.395396   883.845165  1825.781167   880.644619  1962.312758  4409.013987   495.649092   997.557864  2244.709879  3071.899116  4744.104743  3248.672783  3960.224986  1297.488660  2053.738385  1355.139911   796.122700   698.882714   949.199572  1141.843572  1489.083767  2073.707730  3228.494823  2194.624245  2436.808795  3128.937781  1961.667836  2474.840730  2609.038651  2383.010238  2076.018900  2343.199402  2713.589370  3388.371170  2797.315717  1664.395183  1677.539051  1987.502873  2241.464704  1796.339005  2051.593214  1446.813494  1148.493513  1572.848409   854.343548  1066.824719   901.689753  1255.647540  1016.793773  1592.566222  1070.186049  1171.276122   880.878940   703.553557  3222.695887  3068.659306  3825.371861  3355.252743  3560.636640  3900.076747  4514.361918  1128.297970   821.647123   603.076592  2950.828671  2673.263252    68.361647   220.291745
  1.742000  4033.980072  4547.049701  3228.618205  2042.868137  2540.600002  2248.319238  2891.710699  1207.047403   884.000883  1824.134886   874.573067  1961.300671  4379.354119   490.753315   988.275036  2273.877859  3062.755466  4734.046459  3256.635666  4035.653174  1291.482598  2038.683146  1352.311373   791.033208   695.716515   943.579599  1137.197241  1480.285674  2064.154148  3238.015473  2120.039314  2361.911386  3080.003262  1908.958703  2426.957786  2573.830783  2317.773700  2033.238709  2289.175987  2692.075074  3371.368051  2788.034678  1616.214216  1626.872271  1928.811073  2188.764215  1740.298867  2002.812773  1409.686059  1116.737574  1532.895416   837.108120  1046.341062   885.924473  1231.207922   985.239968  1556.191146  1039.004773  1137.040928   856.554359   683.877692  3210.894465  3056.603074  3806.613386  3331.554532  3540.940881  3876.255751  4493.305087  1122.199968   814.975649   618.741326  3068.995774  2769.152820    67.604333   216.882862
  1.752000  4007.168114  4521.170855  3212.645352  2027.336806  2538.817823  2243.741155  2891.868353  1197.291166   874.371529  1815.559715   862.676650  1954.350471  4355.145991   483.235307   975.887850  2269.030660  3059.747815  4720.424712  3262.971342  4062.384665  1281.635463  2021.088898  1346.655488   781.557932   685.005262   932.908356  1125.750542  1466.203630  2046.495080  3247.421980  2046.325207  2288.272083  3034.047186  1855.103225  2378.206849  2536.244690  2255.606949  1992.024034  2235.849500  2665.847838  3353.734016  2776.804566  1569.141448  1575.615108  1870.872825  2136.829197  1683.913618  1955.238283  1369.775683  1082.680747  1490.569413   813.797936  1021.491066   864.819735  1203.562468   954.213813  1521.999687  1007.478461  1101.724580   830.059871   662.297383  3195.823729  3039.915860  3787.978888  3304.533660  3520.370424  3851.217031  4472.434521  1109.806150   803.001150   639.521107  3223.070800  2827.988863    64.051412   210.342649
  1.763000  3924.025297  4433.811009  3173.227608  2011.819333  2537.423074  2232.885957  2886.768878  1193.906292   885.578543  1807.834655   860.510245  1948.028803  4268.790483   480.689704   967.217088  2267.383933  3038.685620  4661.883116  3241.712451  4104.676247  1272.815764  1995.531172  1340.247691   778.654516   685.830042   930.408239  1119.798496  1453.673095  2024.120986  3223.982751  1950.680763  2186.168432  2950.226068  1783.083081  2302.352190  2471.942902  2170.423418  1931.810379  2158.712298  2615.458965  3295.481503  2738.333941  1512.686610  1512.643546  1797.239631  2070.142031  1614.806950  1893.179119  1324.678212  1048.123240  1436.685175   795.628428   994.005874   849.527940  1172.011867   919.760615  1473.241746   971.028134  1060.468853   803.150758   643.190891  3155.025244  3000.260890  3736.197650  3253.761232  3474.258184  3793.897331  4410.282671  1103.161201   798.310041   634.945706  3269.441724  2782.260478    64.207055   208.913311
  1.773000  3848.077655  4348.167479  3132.928014  1996.689886  2517.625988  2217.335552  2863.380313  1186.989248   876.430273  1794.954985   856.226459  1936.320662  4216.095209   476.945862   958.357677  2257.966697  3009.455800  4606.726468  3216.025233  4137.454927  1261.170357  1972.282231  1332.139820   773.492232   680.516213   920.493901  1107.747033  1436.053365  1998.389810  3193.961084  1866.828799  2093.578726  2860.839963  1711.898595  2224.418670  2399.301082  2084.718347  1868.164390  2081.637681  2557.681799  3231.922388  2696.345150  1456.454694  1451.389343  1724.321246  2002.146989  1549.392939  1829.263866  1282.727867  1013.494059  1385.639161   778.264031   967.820063   828.826800  1141.141728   885.321572  1422.639638   934.420079  1019.291207   775.373727   622.941814  3106.141388  2958.424389  3670.911789  3202.484250  3426.434994  3733.077645  4340.186715  1092.469990   790.844858   639.906973  3249.367177  2797.096670    64.991843   206.213389
  1.783000  3816.508055  4311.907887  3115.348220  1988.183409  2499.954551  2202.135473  2843.127251  1184.169576   872.381330  1789.832115   853.655785  1931.831688  4195.041060   474.378653   952.621847  2253.082544  2991.330922  4582.648277  3203.873634  4147.495329  1255.384684  1957.724988  1328.922957   770.960972   677.507892   915.731564  1100.992113  1422.116905  1978.842318  3170.475364  1739.186496  1956.451535  2712.161243  1605.170071  2108.359635  2287.970632  1956.618428  1766.264886  1963.482350  2458.511889  3171.307743  2649.680376  1369.840652  1359.496713  1612.056494  1896.711737  1452.675909  1730.630696  1202.545613   949.046910  1297.532171   736.184195   918.202400   787.306726  1079.400256   828.157365  1340.232342   873.249620   952.004716   727.810487   586.066656  3087.750077  2936.975062  3642.671108  3168.499768  3402.574956  3685.164154  4296.135604  1084.846854   785.796419   644.166470  3173.203766  2809.199691    64.569768   202.708412
  2.044000  4214.152396  4787.193537  3380.388021  2054.089755  2517.765164  2215.899229  2907.673419  1269.103438   953.905284  1916.345209   889.463425  2104.417682  4588.750601   477.046892   931.958556  2423.970848  3105.712235  5172.299743  3531.015813  4452.935755  1330.170780  1970.508248  1396.352947   820.046663   709.532648   972.790718  1152.245998  1419.061869  1989.604235  3002.101183   612.252764   784.989744  1661.301851   659.509227  1155.531630  1427.333653   840.180218   919.949338   940.525979  1844.916046  2498.500347  2001.261860   651.255921   597.760901   639.902279  1295.021325   713.850111  1085.596532   493.294895   384.403653   541.729406   349.988863   439.312123   385.535881   503.292456   297.209676   626.208112   278.594643   306.882691   320.130326   258.347373  3374.997973  3029.204607  3876.168132  3212.617934  3605.754077  3642.609417  4520.350099  1085.647643   790.691897   717.122033  4063.414931  3161.987960    44.653574   146.659166
  2.053000  4228.495955  4804.950356  3393.825591  2056.175321  2525.295317  2220.796198  2917.222679  1274.143606   956.183597  1920.038313   890.813470  2114.809304  4606.180489   478.220880   932.516083  2426.120490  3117.771447  5189.510584  3533.414602  4446.992576  1335.385889  1969.317496  1396.828294   824.603587   711.949989   977.417231  1158.463731  1429.517418  1999.961138  2967.725098   643.039048   817.612037  1666.828990   681.986883  1164.708436  1420.196891   866.751596   933.069140   958.956033  1827.016622  2457.587570  1960.899681   671.220496   615.631752   669.405758  1316.556185   734.653249  1107.269302   510.470793   397.957228   559.391603   361.622721   453.455597   397.486202   519.614220   307.559520   638.062656   291.368775   322.655886   326.445922   263.867732  3386.927247  3024.268150  3886.246979  3234.137297  3620.657027  3688.569367  4557.767212  1090.753451   795.148686   721.425489  4064.957798  3176.756799    45.209071   148.273194
  2.062000  4261.705875  4833.568335  3403.536379  2061.531693  2532.460690  2244.130969  2938.728333  1280.331165   953.144953  1924.311221   894.542485  2122.080773  4686.428607   479.608253   935.483500  2423.112988  3125.011623  5207.009315  3530.080914  4431.158006  1338.918805  1970.643103  1398.334056   828.066096   713.331252   981.792584  1161.788478  1438.492835  2010.505050  2927.107215   677.637905   853.448510  1671.977788   705.649331  1173.572168  1411.832720   894.555002   946.068913   979.310572  1806.829274  2413.887382  1917.438060   692.384914   634.424910   699.523985  1338.533014   756.214038  1130.369976   530.424640   412.056819   581.171960   374.072641   470.380634   407.196060   538.317934   318.627544   650.274232   305.097662   339.418761   332.893021   269.459076  3394.230008  3014.832735  3898.619115  3257.590532  3629.747033  3730.854392  4582.577348  1095.237285   800.210610   725.641400  4058.527052  3192.378581    45.896270   150.080388
  2.071000  4281.130731  4853.105843  3411.208987  2063.471377  2533.163726  2252.183855  2946.371138  1281.460226   955.350250  1924.010962   895.985141  2127.080113  4719.368517   480.363332   936.333984  2417.805940  3130.903840  5216.013193  3524.120152  4407.529235  1340.033412  1970.203370  1399.763376   830.302313   714.606270   985.458791  1165.072992  1445.442885  2018.752396  2889.198959   712.028518   889.706612  1683.595181   729.817078  1186.434999  1410.403252   924.705267   961.402953  1001.972184  1794.767231  2386.111617  1887.197942   714.013800   653.840676   729.413182  1360.155940   778.831467  1152.855530   549.701788   426.184796   601.064488   386.885814   486.049391   419.103242   555.628464   330.535769   663.644522   319.275558   356.800780   340.058841   275.536738  3402.078152  3007.718623  3905.760944  3275.638819  3634.079695  3768.329620  4606.876373  1098.726094   802.639350   729.961246  4057.517648  3208.054304    46.714591   152.477501
  2.080000  4288.092852  4864.165783  3417.217731  2062.480003  2528.013587  2246.229351  2941.195965  1278.693229   961.101428  1919.919997   895.551518  2130.219936  4712.115526   480.587110   935.448483  2411.043942  3135.704994  5218.316913  3516.224921  4377.413392  1339.237690  1968.098879  1400.592476   831.605047   715.695694   988.451242  1168.408543  1450.737268  2024.768740  2854.003310   745.884851   925.934836  1700.166464   754.237622  1202.461869  1414.723247   956.536829   978.513807  1026.263833  1789.356321  2370.962799  1867.829859   735.857636   673.648193   759.083182  1381.384730   802.121833  1174.660251   568.071716   440.132953   619.102716   399.608277   500.468984   432.624556   571.627244   342.911035   677.754730   333.546698   374.361724   347.704552   281.913336  3410.148919  3002.781272  3908.608258  3288.852274  3635.049164  3801.889718  4631.230533  1101.398245   803.114474   734.279975  4061.247706  3222.498596    47.590816   155.196870
  2.089000  4286.930263  4866.792858  3419.418633  2059.855610  2513.247430  2228.202671  2921.237051  1274.726093   961.640477  1912.336200   894.815549  2129.705995  4696.176350   480.354019   934.419632  2402.719408  3136.591017  5216.339827  3504.482806  4334.368706  1336.111575  1964.473575  1397.745460   831.856802   715.280846   990.013778  1170.591712  1453.593522  2026.379555  2820.901573   779.080763   961.524919  1718.735695   778.513700  1220.482141  1424.147189   989.036039   996.277556  1051.469520  1788.714379  2362.976074  1856.985092   757.500231   693.576559   788.723752  1401.802897   825.176910  1195.488721   584.858023   452.840626   635.818094   410.046242   513.914675   444.973148   586.691983   354.629271   691.323429   346.585102   390.418880   355.123915   287.922062  3414.007425  2999.027371  3908.808827  3295.912743  3633.004129  3829.706311  4651.146233  1102.913693   803.560764   737.943873  4066.556692  3227.420747    48.257397   157.214124
  2.098000  4280.451536  4863.285720  3418.295681  2055.844516  2489.757985  2200.840265  2888.870537  1270.013452   957.064480  1901.956946   893.890932  2125.673741  4678.280950   479.779616   933.460146  2392.238528  3132.417798  5211.139321  3487.983644  4277.580678  1331.038773  1959.757805  1391.339749   831.209421   713.455006   990.281478  1171.510518  1454.358697  2024.103105  2788.041830   811.610073   996.378586  1738.774031   802.590773  1240.147054  1437.948644  1021.847203  1014.395580  1077.300683  1791.942567  2360.680252  1853.251010   778.866112   713.551491   818.190947  1421.415657   847.867280  1215.525419   600.123852   464.284904   651.421994   418.351851   526.486859   455.879420   600.946508   365.653522   704.221725   358.391963   404.970720   362.281688   293.525830  3413.923085  2996.291220  3907.097280  3298.094571  3628.455997  3852.473199  4666.459262  1103.337854   804.078579   740.858316  4072.389305  3222.596645    48.660091   158.506613
  2.107000  4279.137552  4863.775969  3416.045606  2049.596757  2458.385527  2171.965539  2849.960029  1264.457107   951.072127  1890.466809   891.952589  2117.317915  4674.431682   479.267575   932.647511  2373.293042  3113.008440  5204.737782  3457.288742  4192.863405  1325.120181  1955.662221  1381.485462   829.972178   710.694492   989.689827  1170.335338  1454.237849  2019.841373  2742.399573   843.887478  1030.712873  1761.215329   826.974735  1262.183934  1456.106752  1054.668501  1032.669768  1103.739217  1798.160374  2363.959849  1855.383664   800.180510   733.932778   847.028643  1440.468282   870.447159  1236.176193   613.964610   474.435873   666.336939   425.831638   538.198836   464.972183   614.584573   376.423076   716.468543   369.380601   418.561362   369.537845   298.859086  3412.121534  2995.178998  3905.280530  3300.980628  3622.199595  3872.672915  4676.303566  1102.440134   803.718045   742.349774  4074.923992  3204.805255    48.432495   159.208085
  2.115000  4281.850159  4867.186844  3413.768113  2042.478323  2429.530621  2149.405032  2816.562951  1259.675175   946.098715  1881.367117   889.740586  2108.294070  4680.882692   478.959754   932.085365  2352.096736  3087.307811  5198.974609  3423.250616  4107.795656  1320.168972  1952.992827  1371.766180   828.619525   708.055869   988.644436  1168.035641  1453.653127  2015.326619  2696.547508   868.338421  1056.517810  1780.266017   845.813453  1280.735731  1473.109722  1079.607978  1046.723276  1124.270484  1805.167943  2370.675951  1861.239672   816.383958   749.787465   868.537426  1454.561204   887.510628  1252.350956   623.554811   481.293611   677.228495   431.102663   546.495691   470.719002   624.527298   384.496003   725.375712   377.215073   428.264178   375.204794   302.794352  3409.840465  2995.619178  3904.046118  3303.984702  3616.102934  3886.439204  4680.181444  1100.864038   802.780464   742.436945  4073.890150  3181.998134    47.827181   159.370918
  2.124000  4278.820157  4866.331518  3410.872221  2025.677562  2395.711541  2118.828446  2775.771916  1253.914982   941.991434  1872.448325   887.100026  2099.943608  4675.239027   478.627644   930.906236  2319.927514  3056.476712  5189.153552  3377.058208  3994.759619  1314.230859  1948.540658  1360.383928   826.487169   705.211088   986.739472  1165.791005  1452.845782  2008.567899  2625.089288   898.810104  1088.511422  1806.763709   869.487524  1305.104494  1497.026831  1110.315993  1064.730734  1149.790064  1817.464083  2384.165078  1872.847378   836.430416   769.848228   895.399228  1471.469402   907.960385  1271.665245   635.410473   489.750952   690.350384   437.773429   556.327254   478.499793   636.418909   394.579023   736.600831   386.725478   439.807922   382.702053   308.117270  3407.401443  2997.680306  3903.124034  3306.219280  3605.875969  3902.353048  4686.000049  1098.981425   801.663697   742.127672  4068.277478  3150.206506    47.271387   159.679204
  2.133000  4262.973070  4854.994416  3407.780528  1995.897591  2369.165272  2086.019069  2740.055323  1248.765364   941.774100  1867.974699   884.858370  2097.669244  4642.484486   478.312597   928.839743  2281.008661  3032.684624  5174.984336  3330.090046  3881.402910  1308.843493  1941.997409  1351.471990   823.719874   703.314841   983.907580  1164.999753  1451.734155  2000.120580  2534.344196   928.311124  1119.230613  1836.681515   892.738104  1330.479532  1524.207443  1139.325351  1083.050519  1174.270436  1835.089326  2405.043840  1890.594363   855.552629   789.732561   921.656936  1486.685276   926.322863  1288.607717   647.094250   498.156138   702.498481   444.573350   565.193444   487.509184   647.217259   404.479764   747.953132   395.705849   450.221114   390.764438   314.117856  3405.438960  3001.704216  3902.694285  3305.112123  3590.474129  3915.652633  4694.047570  1097.441539   800.771490   741.332322  4054.783881  3115.814924    47.233659   160.267372
  2.141000  4249.923229  4844.160080  3402.957916  1973.750442  2354.984432  2069.188803  2721.429467  1244.245991   940.764919  1862.664372   882.298499  2094.305903  4620.611966   477.670841   926.990509  2255.016267  3017.841876  5163.131952  3303.172588  3812.600374  1303.531080  1936.746389  1345.523000   821.450949   701.154545   981.139839  1163.109019  1448.497027  1991.965622  2471.684217   949.504822  1141.118184  1858.188212   910.127461  1349.788159  1545.165628  1159.961596  1096.707582  1192.257628  1848.410219  2420.316488  1904.606372   869.259387   804.413930   940.801203  1496.965140   939.577371  1300.256997   656.084046   504.923910   712.053627   449.672975   572.045259   493.959934   655.335486   412.089340   757.087022   402.617045   457.874089   397.122912   318.873227  3399.703205  3002.773225  3898.258209  3302.205503  3570.784628  3922.512531  4696.229398  1095.246002   799.290836   740.142614  4036.116898  3086.712062    47.233724   160.558186
  2.150000  4235.023856  4827.808440  3390.279710  1952.970326  2353.822291  2073.207647  2722.805142  1236.866936   936.207771  1849.382371   876.753852  2084.219307  4610.372186   475.811660   924.288481  2237.140983  3008.266091  5147.535801  3297.579288  3783.831298  1293.462068  1930.396855  1340.490729   818.512961   696.304142   976.429284  1156.897470  1437.839270  1977.750361  2422.984689   970.892906  1162.729487  1878.998876   929.693729  1372.122765  1569.711417  1180.372164  1111.833751  1211.692691  1862.587929  2434.825897  1921.121329   883.073956   820.314288   960.884616  1505.662054   953.484550  1310.891509   666.996092   513.950214   724.421516   455.429666   580.617487   500.116646   664.881915   421.275459   769.259483   411.093011   466.376841   405.095443   324.844569  3380.788267  2997.865081  3881.232142  3293.632567  3526.046276  3921.858966  4687.030017  1089.673340   795.217231   737.216994  3991.961777  3045.440316    47.206739   160.409156
  2.159000  4221.272171  4812.314510  3376.758397  1939.132512  2353.443801  2077.603936  2725.009620  1226.351559   931.106731  1828.442961   870.843530  2073.506564  4601.745009   474.454574   922.010243  2227.053046  3001.382351  5135.340691  3299.996555  3781.022727  1279.772073  1924.825162  1337.449998   815.910995   690.715164   972.297266  1150.856167  1425.241679  1961.217076  2397.221923   991.506726  1183.572337  1900.675446   949.157998  1394.456029  1594.820023  1200.256795  1127.446145  1230.780408  1878.649443  2451.680601  1939.804405   896.419063   835.797042   980.056748  1513.850838   966.712832  1321.202517   678.915009   523.539148   737.778917   461.672731   589.565262   507.078990   675.358698   430.844799   782.928169   420.173034   475.560091   413.570218   331.287645  3361.465335  2992.727757  3863.733709  3283.606172  3477.334082  3920.730650  4677.759409  1083.929390   791.039541   734.423697  3943.236768  3010.347188    47.389688   160.576347
  2.167000  4211.986065  4802.371264  3366.394341  1938.663870  2349.535972  2074.330002  2720.814943  1212.693527   926.834270  1799.435318   866.032466  2065.460086  4592.771828   474.561527   921.068415  2228.577882  2998.048067  5132.067204  3308.001161  3808.228374  1263.294220  1921.744198  1337.843984   814.432204   685.495958   970.362052  1147.406623  1413.612664  1945.077330  2409.342080  1007.935330  1200.382411  1921.195388   965.014100  1412.688792  1616.200060  1216.655523  1141.275689  1246.220842  1895.487458  2470.591664  1958.822906   907.094553   848.009437   994.713157  1520.614177   976.738632  1329.919845   690.253377   531.972386   750.020593   467.629768   597.321950   514.555611   685.490668   439.204164   796.208978   428.501591   484.370627   421.161763   337.217674  3348.735571  2990.021706  3852.171302  3274.465501  3437.696993  3921.665251  4673.767090  1079.819575   788.115859   732.833296  3902.464211  2994.834185    47.891722   161.400046
  2.176000  4200.007617  4790.236652  3352.192342  1942.775548  2339.246571  2064.245790  2707.993388  1189.683676   917.711705  1747.139245   857.250616  2052.961737  4578.967094   474.750958   920.024216  2230.357528  2992.623746  5131.414533  3317.691982  3844.394684  1237.805188  1918.309182  1338.164508   811.915696   677.001551   967.351571  1142.126694  1396.716386  1922.425479  2436.665446  1029.217690  1222.284809  1949.421018   985.352099  1436.627209  1644.171476  1238.462478  1160.006002  1267.132461  1918.976903  2497.418225  1985.466778   920.566469   863.416865  1013.112217  1529.154181   989.313796  1341.189593   705.436021   542.949885   766.467601   474.964231   607.454441   524.292067   698.998421   450.159423   813.942775   439.681299   496.378765   430.949144   344.918631  3332.010508  2986.577749  3835.306168  3261.960745  3390.991092  3923.790157  4670.480490  1073.540747   783.336237   730.518177  3849.490881  2976.155281    48.208237   162.310693
  2.184000  4191.010594  4782.521427  3339.868486  1952.857971  2319.955677  2045.154124  2682.459056  1162.271425   902.235359  1678.293198   844.728276  2038.328797  4565.060437   474.498644   919.392109  2226.740271  2984.999120  5137.198567  3320.354521  3859.074414  1211.569011  1916.657984  1336.727589   808.376968   666.913018   963.360444  1135.646775  1380.586177  1902.944446  2470.799834  1044.768170  1238.517836  1972.710490   999.533311  1454.704851  1664.658189  1255.566031  1175.120845  1284.599602  1938.540787  2520.430088  2008.097172   929.499269   873.702765  1025.333852  1534.741968   997.704864  1349.187791   716.968849   550.769567   779.274330   478.952341   614.832565   530.629195   709.066167   458.157994   827.161744   448.362753   505.986512   437.618494   350.238234  3318.208158  2983.716428  3817.518651  3251.861334  3369.369209  3926.855326  4671.304822  1066.425145   777.252913   727.887079  3811.559081  2960.283160    47.465530   162.278283
  2.193000  4186.638296  4779.822826  3327.491581  1967.734247  2288.091630  2016.203254  2641.141415  1131.879538   882.889256  1598.331630   832.244158  2017.666548  4559.276104   474.527888   920.203701  2219.995260  2976.331413  5149.186850  3323.725164  3863.484859  1181.648225  1916.226745  1336.199641   805.006176   655.649230   959.627926  1127.693206  1361.257732  1879.712194  2514.197826  1064.235866  1258.958578  2002.761215  1016.886383  1477.147341  1690.005660  1277.330965  1194.610596  1307.033896  1964.097470  2551.026344  2037.188858   940.581933   886.514112  1039.826348  1541.806757  1008.090824  1360.031813   732.133389   560.984015   796.159431   484.303646   624.914579   537.933819   722.600147   468.361452   844.124481   459.858812   518.559925   446.179993   356.959924  3304.637372  2982.447147  3800.522685  3242.197335  3353.508115  3932.020366  4673.785865  1058.485135   770.628676   724.229515  3769.317567  2938.131392    46.807118   162.265990
  2.201000  4201.875627  4795.693755  3328.155875  1980.195343  2252.213061  1989.211142  2596.747577  1126.923710   874.245688  1575.856805   835.171714  2000.360191  4587.646425   475.635529   924.876705  2212.020755  2974.580526  5166.640282  3328.151703  3835.395575  1172.972172  1919.811815  1339.962929   806.336328   653.556511   961.295813  1124.048755  1352.435648  1868.644059  2538.149655  1077.202335  1272.774488  2023.856342  1027.716100  1491.322666  1706.077158  1292.198300  1208.400801  1322.426647  1982.770860  2574.472129  2057.058215   948.130190   895.334259  1047.942191  1547.002941  1015.073508  1369.541138   743.927285   568.995252   809.263512   489.454195   633.854046   541.521348   733.955428   475.657880   856.382549   468.916558   527.967922   452.664942   361.744463  3306.053877  2987.822592  3805.587292  3244.017065  3366.369009  3938.218057  4677.704573  1056.924760   770.036578   721.283481  3754.527867  2918.446660    47.539151   162.661485
  2.210000  4221.500158  4816.141427  3330.437541  1994.099021  2194.148153  1942.439824  2524.159551  1125.737578   865.934640  1560.233831   840.994492  1974.832267  4622.135758   477.019511   930.573940  2199.075967  2970.790565  5188.314915  3329.670727  3782.635629  1166.466773  1923.110783  1344.429851   807.698518   652.001277   963.360369  1119.629890  1342.934072  1855.760217  2563.618720  1091.707051  1288.294494  2047.458291  1039.207503  1506.514400  1723.028719  1309.021115  1223.770604  1339.338273  2004.005313  2600.826025  2078.322470   956.538022   905.102417  1056.753621  1552.809328  1022.713929  1380.614936   757.536218   578.411594   824.449360   495.522991   644.306317   545.518622   747.235417   483.981967   870.384499   479.522794   538.930073   459.900536   367.016159  3310.990632  2995.487452  3815.630972  3248.127401  3387.405276  3945.653439  4682.558477  1055.595800   770.039931   716.811493  3734.018803  2888.936996    48.511447   163.055714
  2.218000  4216.966331  4812.870622  3330.380619  1990.277022  2095.599920  1844.372600  2395.950854  1137.170121   870.480984  1588.799506   844.748989  1939.499676  4602.093399   476.673245   928.707123  2177.155465  2954.359055  5190.678835  3304.514885  3679.890633  1175.111532  1913.879365  1341.242790   802.757517   651.128665   959.863216  1115.727574  1341.236979  1848.107427  2559.216022  1090.976372  1287.710220  2045.071572  1035.348549  1502.238661  1716.331691  1309.012324  1221.709624  1335.955113  2003.336847  2596.850693  2070.356160   955.688730   903.635994  1056.287661  1551.921219  1021.131426  1380.341798   757.672936   579.562820   825.053304   495.442934   644.239113   546.655208   747.718960   484.062657   870.499387   480.522886   540.092103   458.526835   365.872495  3320.975006  2998.934388  3825.393617  3252.230585  3403.621614  3945.468068  4682.853818  1054.183394   770.097002   709.866509  3693.798780  2846.665978    48.147608   162.261520
  2.226000  4210.110307  4807.712436  3330.533803  1982.791275  1980.844587  1729.786247  2247.266173  1149.779558   876.601785  1622.938961   848.118812  1896.988899  4577.189684   476.101562   925.882757  2148.977965  2931.874692  5191.346407  3269.517124  3554.474413  1185.522079  1901.614666  1336.894780   796.814263   650.238395   955.295339  1111.658961  1340.430975  1840.550303  2545.760274  1086.651459  1283.133179  2035.504878  1027.584523  1492.566019  1703.041941  1304.655522  1215.204895  1327.652931  1996.341199  2583.870888  2053.849995   952.641666   899.322629  1053.148583  1549.257934  1017.313898  1377.664953   754.886046   578.555241   822.332650   493.883081   641.780794   546.385013   745.287389   482.119732   867.182389   479.281582   538.968332   455.057248   363.170356  3331.810534  3000.830114  3834.801912  3256.275356  3420.236707  3944.694698  4682.868719  1052.487120   770.156011   701.809749  3638.454974  2793.934941    47.564055   161.198862
  2.234000  4210.619032  4811.604023  3333.871663  1968.987137  1847.578883  1603.192240  2080.571800  1153.928861   879.839435  1641.876698   848.973915  1835.745722  4575.982988   475.707650   924.173817  2100.481987  2890.578210  5195.960999  3208.062649  3380.747736  1190.394759  1885.364503  1333.137602   792.201832   649.123415   950.346291  1108.064651  1339.650452  1833.127141  2503.107190  1072.938293  1267.360449  2004.085332  1010.152251  1467.618942  1671.709567  1287.236214  1196.534857  1307.219118  1968.593448  2542.152703  2012.506425   944.003165   887.340307  1041.347757  1541.554779  1008.007824  1369.534284   744.970590   570.428893   810.698643   488.251559   633.180439   539.269336   735.070929   474.384651   853.977874   471.561700   531.171039   446.355119   356.647521  3338.956237  2994.970381  3837.535083  3257.983029  3435.254693  3946.520686  4684.687555  1049.816981   770.157799   692.328587  3526.199162  2708.179057    46.885884   159.835424
  2.243000  4217.097163  4823.538065  3340.753317  1945.471168  1673.276275  1442.085207  1866.469979  1153.745279   880.929008  1655.680984   848.310664  1749.479920  4591.018558   475.321561   922.616795  2021.512091  2823.671103  5205.425024  3110.584021  3125.341237  1192.658097  1862.629205  1328.629702   787.135810   647.535324   943.820179  1103.663594  1338.433623  1824.072301  2426.648736  1048.501432  1238.875240  1948.736161   981.073976  1425.211877  1619.293243  1255.605817  1164.148897  1272.356212  1918.558478  2469.495982  1942.756921   928.920358   866.565332  1019.922644  1528.248936   992.241278  1354.879290   727.015138   555.053875   789.533108   477.640592   617.710873   525.256693   716.574490   460.305102   830.002278   457.000434   516.262352   431.426018   345.481969  3345.871568  2982.356250  3837.020099  3258.864284  3453.509212  3950.427771  4687.841833  1045.833752   770.084187   678.549632  3326.893151  2569.656074    45.956932   157.828517
  2.251000  4229.284525  4840.515554  3350.034654  1914.413571  1582.744271  1365.436465  1760.571301  1152.859479   874.246657  1662.333161   846.645683  1704.918891  4612.306654   475.013144   920.744315  1932.028234  2755.837440  5219.390988  3018.224239  2902.820408  1191.751584  1847.764105  1324.397922   782.921985   646.150708   938.770548  1099.505499  1336.134374  1819.202602  2342.771888  1022.454128  1207.835227  1895.182729   953.167453  1385.411173  1570.792347  1222.906038  1132.603362  1237.237677  1868.856996  2403.327376  1878.742278   913.448930   845.836923   997.086167  1515.726298   976.894274  1337.753385   707.451031   539.469831   768.096149   463.702269   601.345301   510.221682   698.224008   445.494279   805.144310   441.342145   499.526635   416.149162   333.802886  3352.148235  2970.729470  3837.850392  3260.646164  3468.313813  3952.965140  4688.319266  1042.940170   769.774467   662.704706  3041.431010  2407.890111    45.175129   155.735565
  2.259000  4244.220257  4860.376120  3360.813856  1875.355393  1518.779546  1316.878945  1689.970344  1151.728183   863.741189  1667.285115   844.327286  1673.962474  4637.356997   474.616811   918.159410  1825.482547  2680.895329  5236.068964  2918.688655  2665.387392  1189.595237  1834.145188  1319.434941   778.341740   644.563735   933.424979  1094.566360  1332.784295  1815.098375  2245.029807   991.804972  1171.096414  1835.232675   921.764076  1341.403723  1517.777443  1185.076237  1097.045913  1197.269335  1812.743992  2331.525981  1809.270680   895.351768   822.195262   970.270038  1501.333266   959.257856  1316.864938   684.383363   521.749370   743.535087   446.602553   582.238175   492.653437   677.214339   428.272411   776.479319   423.033908   479.565710   398.649722   320.288576  3358.225822  2957.741916  3838.469982  3262.120783  3482.814133  3954.111338  4686.644971  1039.939299   769.207925   642.523095  2680.293024  2213.014364    44.365292   153.335482
  2.267000  4248.799682  4867.975116  3365.126848  1834.757477  1479.159594  1287.432462  1646.844894  1150.416061   856.917724  1672.388613   841.778219  1655.551791  4650.769532   473.690107   913.591012  1722.353846  2628.619373  5243.390799  2847.789824  2450.523674  1188.364774  1820.185632  1312.975436   773.243234   642.310902   926.662907  1087.752059  1327.668875  1808.580756  2156.581283   959.495977  1132.839993  1777.694076   889.946148  1299.322844  1469.397992  1146.658137  1061.924472  1159.074605  1759.568155  2265.459001  1747.635007   875.216424   798.472613   942.321643  1483.514309   939.346105  1294.108480   661.007687   504.911505   718.915313   431.608297   562.788770   475.074872   655.002594   410.959683   748.299956   404.862389   458.989479   381.855816   307.135135  3357.097805  2942.954302  3830.891550  3255.878985  3489.287198  3946.940005  4677.380025  1035.650000   767.823085   614.148714  2344.071269  2021.867037    43.729725   151.217347
  2.275000  4240.562916  4860.406518  3361.421525  1793.751717  1464.341879  1276.438087  1631.041318  1148.542538   854.556412  1677.161008   838.903263  1648.011357  4649.614096   472.093150   906.799063  1625.771970  2604.738474  5239.058733  2812.434435  2265.124917  1188.027039  1805.453748  1304.641366   767.596066   639.167950   918.183103  1078.628227  1320.388168  1798.847914  2082.213014   925.821885  1093.586534  1724.151373   858.081058  1260.134280  1427.328885  1108.262166  1027.981937  1123.643816  1711.121798  2207.248658  1696.331650   852.915868   775.028318   913.532898  1461.732984   916.951522  1269.488931   637.764037   489.295796   694.595128   419.417359   543.268658   457.861386   631.746128   393.863656   721.188411   387.215093   438.138619   366.255268   294.681992  3347.174823  2926.096022  3813.438118  3240.116239  3485.965133  3929.902315  4659.181833  1029.646918   765.362829   576.100536  2055.353373  1840.966493    43.260893   149.417110
  2.283000  4230.033457  4849.534035  3355.781436  1757.184714  1455.343664  1270.628870  1622.823924  1143.757924   849.270299  1675.541252   835.013390  1628.336459  4644.758403   470.087491   900.303051  1536.507010  2590.560913  5232.102275  2789.311707  2101.886272  1184.790283  1790.394187  1294.997931   762.366578   635.109022   909.432694  1068.233624  1311.501414  1787.537634  2022.862285   893.663391  1056.557968  1676.498652   827.908739  1224.096119  1390.418410  1072.234511   997.150093  1090.688854  1669.126004  2156.222761  1652.177274   830.773711   752.837211   885.930359  1439.518481   894.794539  1244.672462   615.972281   473.881662   671.307221   407.205485   524.543636   441.909656   609.864667   377.736203   695.577413   370.631367   418.493971   352.143906   283.206869  3334.406614  2909.062505  3794.271052  3220.787048  3478.803933  3910.887241  4638.881683  1022.266746   761.800483   534.524284  1844.327152  1680.914760    42.515276   147.314873
  2.292000  4214.686751  4832.228422  3346.108794  1719.527692  1450.581849  1270.486712  1622.639894  1130.597293   833.985806  1657.791585   827.463865  1569.605619  4634.150267   466.679968   893.094093  1433.449984  2584.567964  5220.310092  2776.168585  1928.957403  1173.116863  1769.964397  1279.451400   756.356865   627.681091   897.671282  1052.115634  1296.391338  1769.681424  1974.587142   854.373649  1012.274697  1624.934971   791.449547  1182.091385  1350.808889  1029.450670   962.699130  1051.437557  1626.388133  2102.098316  1606.392860   802.130625   725.842118   851.782784  1409.977078   866.386890  1211.497933   590.162128   453.369655   642.491356   389.992110   501.382947   423.368737   584.120005   358.376764   664.513856   350.802280   395.169705   336.383954   269.969329  3313.379288  2886.237204  3767.559826  3189.422488  3463.045061  3883.683980  4609.491825  1009.715497   754.738972   474.181920  1724.266857  1513.427496    40.832921   143.720508
  2.300000  4203.523099  4820.464849  3337.491155  1698.660403  1460.308880  1282.352805  1637.829393  1118.843928   821.845159  1636.446863   820.870921  1516.596526  4625.296295   464.203432   888.559893  1368.416697  2574.700713  5210.971832  2771.275938  1827.666759  1161.109284  1756.523252  1265.930682   750.515908   620.690584   889.090821  1039.972305  1283.370554  1755.474657  1945.026964   822.978169   977.072194  1584.355235   763.693675  1148.823351  1319.225132   996.644869   936.423838  1021.530256  1594.154984  2060.981840  1571.574062   779.930949   704.403520   824.018866  1387.164444   844.145119  1185.544804   570.889525   438.054018   621.097200   377.355255   484.125726   409.322940   564.874932   344.124027   641.568750   336.339623   378.251597   324.880779   260.577034  3296.547234  2866.556048  3745.783269  3163.712025  3448.065221  3860.835433  4585.931003   999.966115   748.670399   432.188809  1611.946225  1400.963664    39.616786   141.129373
  2.308000  4193.455279  4811.579585  3326.886594  1690.843403  1492.819190  1314.348131  1678.679287  1105.137840   810.288191  1603.403389   813.226774  1454.471350  4615.621567   462.122969   885.616243  1327.666193  2553.307116  5201.266408  2773.409784  1778.209507  1144.701838  1747.322977  1249.949485   742.358193   611.747541   881.408975  1028.651819  1268.327981  1740.760356  1924.943030   789.085105   939.236209  1540.597677   736.032650  1113.106012  1284.319907   963.349193   909.693539   991.522372  1561.331749  2019.071281  1535.851508   757.379234   681.430697   793.259069  1364.212483   821.098462  1158.914864   552.279428   423.658118   600.892752   366.053097   467.767119   395.404883   546.282008   330.807939   620.053113   323.061794   362.866595   314.133167   252.378136  3278.990388  2843.025327  3721.806109  3135.845661  3428.649902  3834.634125  4560.875595   990.448892   741.806030   399.757624  1441.944391  1313.221455    38.679596   138.997035
  2.315000  4182.856977  4801.042080  3316.509128  1686.348319  1515.728384  1336.298287  1707.192510  1093.970984   801.577047  1575.339884   807.324499  1406.739205  4605.924785   460.770316   883.211941  1307.384074  2535.373271  5190.780759  2778.381407  1755.615473  1131.229475  1741.178483  1236.883029   736.225545   605.215095   875.897557  1020.060554  1256.603003  1728.431731  1914.754510   764.339417   911.734104  1509.495676   716.014728  1087.265238  1258.580834   938.632116   890.420899   969.128758  1538.520604  1990.457773  1511.819959   740.660429   664.264336   770.347714  1346.663386   803.865418  1139.136031   538.921505   413.429476   586.630367   358.387120   456.804633   386.178009   533.572435   321.613923   605.286211   313.864164   352.215469   306.850430   246.876962  3263.720274  2824.179828  3701.349795  3112.478256  3411.034346  3812.368512  4539.925456   982.940942   736.462399   383.759215  1337.928325  1268.531233    38.322699   137.619190
  2.323000  4153.349400  4766.447842  3292.142451  1680.370867  1524.811089  1342.726350  1718.514562  1076.367944   789.968893  1529.520303   799.547732  1345.372051  4581.689537   459.884554   878.284201  1320.286840  2509.374321  5161.425471  2797.881067  1771.768034  1110.628694  1734.858453  1216.169596   729.637146   598.874763   869.665444  1008.181646  1240.578145  1706.501693  1921.268553   737.692267   882.675722  1480.423957   694.218278  1060.585305  1229.940131   908.793435   870.113149   941.305459  1519.008279  1968.816966  1495.762467   720.602721   643.622950   743.695498  1322.749257   782.680586  1115.362570   524.622127   402.805246   572.366379   352.015495   448.996313   380.518734   523.318909   313.433185   592.673309   305.378567   342.333987   301.120542   242.511462  3234.072030  2796.294689  3664.044440  3071.488440  3375.631571  3772.683442  4503.197670   971.400887   729.121342   400.308296  1356.461495  1305.030286    39.466582   136.736222
  2.331000  4119.803011  4726.714790  3264.817297  1671.957970  1526.209414  1342.369318  1720.837206  1058.422178   778.533071  1483.896375   791.512579  1290.477961  4554.485381   458.776951   872.533098  1335.720569  2481.802553  5128.570795  2813.912630  1790.965199  1089.839041  1727.206260  1196.290478   722.960457   592.452474   863.182396   995.983332  1224.177182  1683.431417  1928.515285   712.207109   854.837224  1452.919096   673.457310  1035.649255  1202.929839   879.758075   850.561336   914.382413  1500.685960  1948.661059  1481.848955   701.064840   623.719431   718.209967  1298.833489   761.980042  1092.065871   510.494821   392.309316   558.451302   345.494300   441.610515   374.947004   513.486899   305.652171   580.670163   297.224894   332.922153   295.672584   238.370113  3202.109337  2767.874002  3623.806238  3029.580116  3338.688612  3730.721176  4463.642240   959.375948   721.392110   418.688394  1394.077092  1345.532537    40.554726   135.731502
  2.339000  4068.440497  4666.351974  3222.784698  1643.721610  1500.236541  1322.505474  1693.308800  1036.945358   765.418410  1438.987851   779.430717  1265.552938  4513.534009   454.581082   861.585513  1321.371645  2438.496798  5081.992149  2792.096138  1776.829511  1065.807045  1705.497950  1181.680113   711.864755   580.703691   851.769447   978.905186  1201.368272  1653.358489  1916.723102   680.357516   818.803981  1413.581669   648.518875  1006.852090  1173.439547   845.063627   824.468955   884.454474  1472.093016  1912.595779  1459.084302   677.389652   601.150952   689.589530  1269.468069   737.165734  1062.884554   489.426516   376.131758   537.313931   331.202336   426.523462   359.923355   495.471396   293.464605   560.794249   284.468699   318.878666   285.686497   230.924319  3157.306612  2731.907070  3565.092087  2983.127236  3296.678066  3674.550354  4404.928982   942.758694   709.155351   405.648388  1374.624521  1300.124079    39.404174   132.342745
  2.347000  4016.061127  4605.264962  3180.352747  1614.314616  1471.181959  1300.054491  1661.978811  1016.414538   753.028318  1398.245394   767.665058  1253.344566  4470.737875   449.917093   850.358903  1302.148402  2395.970523  5035.042167  2764.635682  1756.586879  1042.958573  1682.363003  1170.518845   700.949878   569.082461   840.415284   962.728336  1178.581715  1623.579413  1901.412755   648.079589   782.326460  1374.063492   623.398535   978.284553  1144.644096   810.247883   798.094347   854.854807  1443.396807  1876.695603  1436.358541   653.512776   578.625500   660.900176  1240.063757   712.180361  1033.399925   468.008220   359.636880   515.547395   316.493288   410.714038   344.238207   476.654097   280.800164   540.108792   271.231420   304.356515   275.229607   223.084055  3112.624288  2696.471214  3507.016599  2938.911021  3255.349100  3617.313504  4344.633818   926.274955   696.872547   387.857333  1344.392598  1245.757118    37.932321   128.741385
  2.355000  3981.025815  4567.722678  3155.607581  1603.912562  1457.132399  1285.300255  1643.639952  1008.103564   748.553053  1388.362795   764.026716  1296.133846  4433.239102   446.032099   844.326690  1287.696064  2381.599993  5004.615188  2747.404575  1736.703217  1033.743843  1668.147743  1178.299263   697.655678   565.951951   836.465508   960.326865  1165.013164  1605.927348  1886.071116   621.522404   754.028708  1349.873245   602.794103   956.940502  1124.680415   782.504156   778.801069   832.020715  1428.416222  1864.516139  1426.437795   633.941516   560.200624   636.123791  1218.060702   691.701323  1009.908617   453.710817   348.734967   499.166287   309.558511   400.252491   336.829908   463.257246   270.712096   524.349958   260.814130   292.714909   267.578848   216.892771  3086.975515  2675.751746  3479.880691  2918.215394  3226.385415  3571.964800  4299.268425   917.292163   690.595806   378.079228  1312.414408  1244.115308    37.161128   126.876738
  2.363000  3948.993683  4534.376562  3134.213686  1599.500626  1446.597576  1271.890402  1628.460735  1003.908738   746.825784  1388.709694   762.634203  1357.929111  4397.193193   442.438498   839.923620  1275.309175  2374.890596  4978.747368  2731.406689  1716.756225  1029.328257  1656.132340  1191.331446   696.883276   565.212704   834.652036   961.861387  1154.172048  1591.540575  1869.879514   595.699400   727.044940  1329.222471   582.812317   937.046036  1106.761247   755.981728   760.866851   810.473040  1417.148262  1858.628541  1419.947296   615.017898   542.417951   611.502156  1197.800338   671.807975   987.565443   440.805182   338.936634   483.703464   304.359701   390.875228   330.889411   450.841077   260.984786   509.519801   250.748284   281.396732   260.396004   210.877545  3065.901399  2658.921778  3461.548090  2903.648615  3199.794292  3528.574109  4256.580174   910.280794   685.801208   370.789208  1286.547929  1258.883476    36.430229   125.326002
  2.370000  3917.909861  4498.704672  3110.520542  1596.347839  1434.006691  1258.495301  1614.523977  1002.470404   746.873394  1390.763074   760.100111  1401.306987  4374.886751   440.515913   837.163404  1270.377040  2364.417613  4960.077703  2711.862326  1703.899652  1028.883234  1645.852327  1195.162088   696.818233   563.187748   832.446963   960.481986  1146.748587  1580.160558  1856.177598   575.310439   704.968348  1310.529560   567.168444   921.278447  1092.554107   735.462457   745.993555   793.668404  1407.260597  1848.854274  1412.898749   600.437447   528.806336   591.836050  1182.943508   656.053349   970.786437   428.956188   329.874754   470.747612   297.648329   382.319428   321.659110   439.897180   253.038667   497.682132   242.182985   271.872692   254.094973   205.644891  3046.247065  2645.134926  3445.490897  2888.461351  3176.645339  3494.268954  4221.409261   904.106647   680.861622   365.855508  1303.009838  1264.523864    35.095052   123.235881
  2.378000  3874.065280  4446.604550  3075.417876  1592.525095  1415.348202  1240.257323  1595.570892  1002.032533   747.832581  1394.782066   755.852237  1453.232318  4349.133372   438.734777   834.181160  1267.513335  2347.241342  4937.320948  2682.332695  1689.767092  1030.266732  1632.042080  1196.209192   697.122291   559.811965   829.242393   957.069397  1137.531474  1565.339714  1837.317944   548.413172   675.299168  1284.069121   546.554141   900.139138  1073.627174   708.533451   725.757256   771.405846  1393.317133  1832.689792  1402.171403   581.505261   511.093847   565.734282  1164.058819   635.463968   949.419141   412.431769   317.183435   453.190990   287.178606   370.237306   306.728706   424.783677   242.388882   481.973365   230.559502   258.922875   245.431401   198.592246  3018.965423  2626.803219  3423.342705  2866.216004  3144.534528  3449.033499  4174.235165   895.700380   673.925430   360.099636  1348.390132  1267.013252    33.038014   119.981989
  2.386000  3845.791817  4412.758946  3051.689565  1592.586786  1407.534331  1236.977503  1586.927623  1005.418822   749.431252  1403.608322   753.327683  1489.600837  4323.345125   438.754596   833.983496  1270.170957  2335.399538  4925.889075  2664.396465  1686.185598  1033.050567  1623.302251  1201.445237   698.661432   560.086481   829.272792   956.618413  1128.785163  1555.477083  1818.588227   524.933860   649.215281  1259.820908   527.962223   879.135653  1056.277454   683.890432   706.984624   750.005990  1380.026489  1821.758747  1392.420381   565.656945   495.324656   542.641729  1147.706062   619.670078   932.916775   400.268100   307.689384   438.280366   279.529560   359.609388   296.319183   412.512794   233.190246   468.372814   221.213978   247.612186   238.560308   194.046889  3002.668917  2613.862157  3407.854438  2850.937843  3115.541637  3410.308957  4135.377109   890.552923   671.627894   358.015709  1385.233253  1265.909225    33.188139   117.924828
  2.393000  3830.543160  4394.811690  3038.665950  1593.816131  1407.406926  1242.081523  1585.428715  1009.391472   750.814304  1411.756873   752.158910  1508.051157  4300.575554   439.522490   834.808201  1274.564713  2329.477370  4921.864271  2657.890320  1689.074486  1035.227329  1618.747413  1207.508370   699.917078   562.222153   830.463544   957.416669  1121.885553  1549.641043  1804.201454   508.665331   631.089807  1242.069975   514.619425   862.883106  1043.329239   666.123703   693.222210   733.830780  1369.490325  1815.272570  1384.828687   555.015206   484.125279   526.692457  1136.270314   609.944314   922.485217   393.014438   302.020274   428.111069   275.030117   352.206603   291.017015   404.479988   226.853210   458.922200   215.171240   239.765309   234.158523   191.756319  2995.203435  2606.066167  3398.527801  2842.031717  3094.176352  3383.395374  4109.347463   887.995139   672.074109   358.346142  1405.909061  1262.994707    34.369184   116.905747
  2.401000  3781.381249  4340.666831  3003.794253  1584.796309  1401.832253  1238.388941  1574.637294  1007.322520   751.173496  1409.434676   747.562498  1524.125189  4241.322875   438.187309   829.917789  1274.745464  2319.850475  4899.345040  2652.278841  1690.623760  1031.716540  1604.345143  1209.027842   695.312321   562.796444   824.651048   951.497629  1108.085960  1530.128568  1782.979369   484.099947   604.044460  1212.066188   493.855365   838.138014  1019.801944   640.088990   671.828762   708.989277  1346.958876  1792.392433  1366.377771   538.004041   466.701388   505.127460  1117.548198   592.954233   902.852938   377.943031   291.374866   411.224999   265.026558   340.594426   282.572657   390.340090   216.863565   443.537273   204.753019   227.571633   226.192400   185.951646  2970.620096  2585.208714  3371.782601  2815.783918  3054.233789  3336.707056  4062.720537   879.270583   667.588413   357.452855  1423.975974  1255.309880    33.642380   113.795558
  2.409000  3691.815436  4243.579209  2943.479717  1560.391337  1387.457699  1218.816936  1550.845653   994.553491   749.307796  1388.245672   738.548785  1530.885547  4144.511521   433.479808   816.676691  1267.023981  2307.015061  4852.395952  2649.967074  1688.004732  1019.079238  1577.946097  1201.092079   682.119653   559.430830   808.606297   935.574993  1087.812483  1493.706554  1758.725047   454.751067   572.062433  1172.188446   468.332842   808.541998   986.751989   609.897375   645.556375   678.942278  1311.920285  1748.347580  1335.481554   516.459495   445.283242   482.209846  1093.407422   569.510944   874.255300   354.773849   275.820121   389.267579   249.219965   326.242559   271.390490   370.875746   204.430036   423.728526   190.645661   212.584008   215.005167   176.001713  2924.360931  2548.863888  3324.449658  2768.960595  2997.357249  3273.644149  3997.776508   862.834081   655.551106   354.523137  1431.326121  1243.218482    29.618980   108.243013
